File: data/JAA_CAL345.csv
Summary
Name,"JAA_CAL345.rslt"
Start time,2023 Jun 06 - 12:07
End time,2023 Jun 13 - 12:47
Operator,"JAA"
Results file path,"C:\Users\ge65ley\Desktop\Calorimetry_Results\AXD\Results_files\JAA_CAL345.rslt"
General Experiment Info
Bath temperature,20Â°C
,Sample - 25336:1
Total mass,6g
Name,"JAA_CAL345"
,Component - OPC
Mass,4g
Name,"OPC"
ID,"Karlstadt CEM I 52.5N 12.10.21"

"Time","Temperature [AmbientT(Therm3T)]","Temperature [Temperature]","Heat flow [Signal]","Heat [Signal]","Normalized heat flow [Signal]","Normalized heat [Signal]","Time markers"
-4446.53,25.6773,20.0002,NaN,NaN,NaN,NaN,""
-4445.53,25.6781,20.0002,9.15469e-07,NaN,2.28867e-07,NaN,""
-4437.15,25.6851,20.0001,1.08627e-06,NaN,2.71568e-07,NaN,""
-4403.97,25.7128,19.9997,9.80632e-07,NaN,2.45158e-07,NaN,""
-4386.68,25.7052,19.9998,1.13964e-06,NaN,2.84909e-07,NaN,""
-4372.31,25.6979,19.9998,1.2711e-06,NaN,3.17776e-07,NaN,""
-4320.87,25.6715,20,1.25134e-06,NaN,3.12836e-07,NaN,""
-4259.79,25.6442,19.9998,1.22789e-06,NaN,3.06972e-07,NaN,""
-4251.69,25.6445,19.9998,1.22478e-06,NaN,3.06194e-07,NaN,""
-4205.99,25.6459,19.9997,6.057e-07,NaN,1.51425e-07,NaN,""
-4184.09,25.6466,19.9996,7.83422e-07,NaN,1.95856e-07,NaN,""
-4163.02,25.6473,20,9.54368e-07,NaN,2.38592e-07,NaN,""
-4145.53,25.6478,20.0003,8.9758e-07,NaN,2.24395e-07,NaN,""
-4126.65,25.6484,20.0001,8.36303e-07,NaN,2.09076e-07,NaN,""
-4111.65,25.6489,20,1.01857e-06,NaN,2.54642e-07,NaN,""
-4090.39,25.6495,19.9998,6.4332e-07,NaN,1.6083e-07,NaN,""
-4073.37,25.6501,19.9998,4.09952e-07,NaN,1.02488e-07,NaN,""
-4044.98,25.6509,19.9997,3.60232e-07,NaN,9.00581e-08,NaN,""
-4041.68,25.6957,19.9997,3.5445e-07,NaN,8.86126e-08,NaN,""
-4028.28,25.8777,19.9997,-3.57919e-08,NaN,-8.94797e-09,NaN,""
-4021.92,25.8607,19.9997,5.27758e-08,NaN,1.31939e-08,NaN,""
-4015.56,25.8336,19.9997,1.41343e-07,NaN,3.53359e-08,NaN,""
-3989.16,25.7213,19.9996,-5.44552e-08,NaN,-1.36138e-08,NaN,""
-3972.85,25.7222,19.9997,-7.96285e-08,NaN,-1.99071e-08,NaN,""
-3925.08,25.8143,20.0001,1.91932e-08,NaN,4.7983e-09,NaN,""
-3895.33,25.7982,20.0001,-9.45164e-08,NaN,-2.36291e-08,NaN,""
-3865.59,25.7325,20.0001,-2.08226e-07,NaN,-5.20565e-08,NaN,""
-3857.64,25.7301,20,-4.09802e-08,NaN,-1.0245e-08,NaN,""
-3849.69,25.7331,20,1.26266e-07,NaN,3.15664e-08,NaN,""
-3828.87,25.7412,20,-6.56772e-08,NaN,-1.64193e-08,NaN,""
-3815.8,25.7463,20,1.11558e-07,NaN,2.78896e-08,NaN,""
-3797.78,25.7533,20,-2.09873e-07,NaN,-5.24682e-08,NaN,""
-3784.53,25.7663,20,-3.12817e-07,NaN,-7.82042e-08,NaN,""
-3773.84,25.7953,20,-2.04852e-07,NaN,-5.12131e-08,NaN,""
-3760.25,25.8321,20.0001,-4.6042e-07,NaN,-1.15105e-07,NaN,""
-3743.28,25.878,20.0001,-2.56712e-07,NaN,-6.4178e-08,NaN,""
-3734.15,25.8927,20.0001,-3.90341e-07,NaN,-9.75853e-08,NaN,""
-3725.03,25.8822,20.0002,-5.2397e-07,NaN,-1.30993e-07,NaN,""
-3712.12,25.8673,20.0002,-1.5197e-07,NaN,-3.79926e-08,NaN,""
-3682.7,25.8333,20.0002,-1.86287e-07,NaN,-4.65718e-08,NaN,""
-3653.28,25.7994,20.0001,-2.20604e-07,NaN,-5.5151e-08,NaN,""
-3626.83,25.7689,20.0001,4.33742e-08,NaN,1.08436e-08,NaN,""
-3626.5,25.7687,20.0001,4.67177e-08,NaN,1.16794e-08,NaN,""
-3618.03,25.7661,20,-1.85752e-07,NaN,-4.64381e-08,NaN,""
-3596.58,25.7592,20,2.48593e-08,NaN,6.21483e-09,NaN,""
-3571.24,25.7512,19.9999,-5.079e-07,NaN,-1.26975e-07,NaN,""
-3550.03,25.7444,19.9998,-2.10007e-07,NaN,-5.25017e-08,NaN,""
-3536.92,25.7402,19.9998,-3.5971e-07,NaN,-8.99275e-08,NaN,""
-3522.17,25.7356,19.9997,-1.63894e-07,NaN,-4.09736e-08,NaN,""
-3495.86,25.7272,19.9996,-3.74039e-07,NaN,-9.35098e-08,NaN,""
-3484.68,25.7236,19.9996,-1.44248e-07,NaN,-3.6062e-08,NaN,""
-3469.9,25.7189,19.9996,-3.7464e-07,NaN,-9.366e-08,NaN,""
-3467.29,25.7181,19.9996,-3.71827e-07,NaN,-9.29567e-08,NaN,""
-3438.54,25.7089,19.9999,-3.40811e-07,NaN,-8.52026e-08,NaN,""
-3419.82,25.703,20,-3.16434e-07,NaN,-7.91084e-08,NaN,""
-3401.09,25.697,20,-2.92057e-07,NaN,-7.30142e-08,NaN,""
-3394.71,25.695,19.9999,-5.08311e-07,NaN,-1.27078e-07,NaN,""
-3377.59,25.6896,19.9999,-4.60027e-07,NaN,-1.15007e-07,NaN,""
-3355.78,25.6826,19.9998,-8.87065e-07,NaN,-2.21766e-07,NaN,""
-3341.01,25.6779,19.9998,-8.85252e-07,NaN,-2.21313e-07,NaN,""
-3308.15,25.7201,19.9996,-8.81217e-07,NaN,-2.20304e-07,NaN,""
-3286.2,25.7483,19.9995,-5.22636e-07,NaN,-1.30659e-07,NaN,""
-3260.19,25.7816,19.9995,-2.98696e-07,NaN,-7.46741e-08,NaN,""
-3234.99,25.807,19.9998,-8.17537e-08,NaN,-2.04384e-08,NaN,""
-3234.18,25.8064,19.9998,-7.47565e-08,NaN,-1.86891e-08,NaN,""
-3219.79,25.7958,20,-2.41405e-07,NaN,-6.03512e-08,NaN,""
-3206.47,25.7861,20,-1.82036e-07,NaN,-4.55089e-08,NaN,""
-3193.15,25.7763,20,-1.22667e-07,NaN,-3.06666e-08,NaN,""
-3138.7,25.7363,20,-2.24162e-07,NaN,-5.60404e-08,NaN,""
-3112.32,25.7232,20,-2.67689e-07,NaN,-6.69222e-08,NaN,""
-3085.93,25.7187,20,-3.11216e-07,NaN,-7.78039e-08,NaN,""
-3030.98,25.7094,20,1.49984e-07,NaN,3.7496e-08,NaN,""
-2957.95,25.697,20,-1.59536e-07,NaN,-3.98839e-08,NaN,""
-2926.5,25.6916,20,-2.79069e-07,NaN,-6.97673e-08,NaN,""
-2923.42,25.6911,20,-2.90811e-07,NaN,-7.27028e-08,NaN,""
-2889.26,25.6645,19.9995,-4.2067e-07,NaN,-1.05167e-07,NaN,""
-2877.82,25.6557,19.9994,-1.14046e-07,NaN,-2.85115e-08,NaN,""
-2867.2,25.6474,19.9994,1.41473e-07,NaN,3.53683e-08,NaN,""
-2849.67,25.6605,19.9995,-8.1419e-09,NaN,-2.03547e-09,NaN,""
-2832.14,25.7166,19.9995,-1.62305e-07,NaN,-4.05762e-08,NaN,""
-2799.6,25.8207,19.9997,-6.19963e-07,NaN,-1.54991e-07,NaN,""
-2772.35,25.7242,19.9998,-9.84611e-07,NaN,-2.46153e-07,NaN,""
-2753.35,25.6569,19.9998,-8.69077e-07,NaN,-2.17269e-07,NaN,""
-2735.83,25.6548,19.9998,-8.67723e-07,NaN,-2.16931e-07,NaN,""
-2718.32,25.7059,19.9997,-8.66369e-07,NaN,-2.16592e-07,NaN,""
-2706.4,25.7407,19.9997,-5.21527e-07,NaN,-1.30382e-07,NaN,""
-2688.57,25.7643,19.9996,-5.92498e-07,NaN,-1.48125e-07,NaN,""
-2670.73,25.7711,19.9995,-6.6347e-07,NaN,-1.65867e-07,NaN,""
-2646.53,25.7804,19.9995,-3.74291e-07,NaN,-9.35727e-08,NaN,""
-2581.06,25.8055,19.9999,NaN,NaN,NaN,NaN,""
-2557.43,25.7404,20,NaN,NaN,NaN,NaN,""
-2533.8,25.6752,19.9999,NaN,NaN,NaN,NaN,""
-2485.81,25.786,19.9996,NaN,NaN,NaN,NaN,""
-2454.17,25.7445,19.9998,NaN,NaN,NaN,NaN,""
-2440.59,25.694,19.9999,NaN,NaN,NaN,NaN,""
-2403.07,25.6965,20,NaN,NaN,NaN,NaN,""
-2358.23,25.6995,19.9999,NaN,NaN,NaN,NaN,""
-2307.46,25.7671,19.9998,NaN,NaN,NaN,NaN,""
-2279.64,25.75,19.9998,NaN,NaN,NaN,NaN,""
-2251.4,25.721,19.9998,NaN,NaN,NaN,NaN,""
-2233.53,25.8816,19.9998,NaN,NaN,NaN,NaN,""
-2208.14,25.7313,19.9998,NaN,NaN,NaN,NaN,""
-2181.98,25.7345,19.9998,NaN,NaN,NaN,NaN,""
-2162.53,25.7369,20.0002,NaN,NaN,NaN,NaN,""
-2116.23,25.7426,19.9999,NaN,NaN,NaN,NaN,""
-2080.77,25.7337,19.9997,NaN,NaN,NaN,NaN,""
-1963.93,25.7044,19.9999,NaN,NaN,NaN,NaN,""
-1906.66,25.705,19.9999,NaN,NaN,NaN,NaN,""
-1849.38,25.718,19.9999,NaN,NaN,NaN,NaN,""
-1783.26,25.733,20.0002,NaN,NaN,NaN,NaN,""
-1749.44,25.7406,19.9996,NaN,NaN,NaN,NaN,""
-1714.55,25.741,19.9998,NaN,NaN,NaN,NaN,""
-1679.66,25.7289,20,NaN,NaN,NaN,NaN,""
-1634.33,25.7132,19.9998,NaN,NaN,NaN,NaN,""
-1586.53,25.6967,20.0003,NaN,NaN,NaN,NaN,""
-1561.91,25.7013,20,NaN,NaN,NaN,NaN,""
-1537.29,25.7151,19.9998,NaN,NaN,NaN,NaN,""
-1451.52,25.7635,19.9998,NaN,NaN,NaN,NaN,""
-1401.37,25.7367,19.9998,NaN,NaN,NaN,NaN,""
-1351.23,25.7098,19.9998,NaN,NaN,NaN,NaN,""
-1302.7,25.7547,19.9997,NaN,NaN,NaN,NaN,""
-1278.46,25.7493,19.9999,NaN,NaN,NaN,NaN,""
-1254.21,25.6446,20.0001,NaN,NaN,NaN,NaN,""
-1238.05,25.6639,20,NaN,NaN,NaN,NaN,""
-1218.68,25.709,19.9999,NaN,NaN,NaN,NaN,""
-1179.28,25.691,19.9997,NaN,NaN,NaN,NaN,""
-1144.73,25.6751,19.9998,NaN,NaN,NaN,NaN,""
-1114.26,25.6942,19.9999,NaN,NaN,NaN,NaN,""
-1062.53,25.7265,19.9994,NaN,NaN,NaN,NaN,""
-1043.29,25.7385,20,NaN,NaN,NaN,NaN,""
-960.418,25.7902,19.9999,NaN,NaN,NaN,NaN,""
-958.302,25.7916,19.9999,NaN,NaN,NaN,NaN,""
-905.707,25.7381,20,NaN,NaN,NaN,NaN,""
-855.138,25.8058,20.0001,NaN,NaN,NaN,NaN,""
-820.193,25.7758,20,NaN,NaN,NaN,NaN,""
-789.708,25.6666,19.9999,NaN,NaN,NaN,NaN,""
-756.045,25.7893,19.9998,NaN,NaN,NaN,NaN,""
-678.988,25.777,19.9998,NaN,NaN,NaN,NaN,""
-638.353,25.7706,20.0001,NaN,NaN,NaN,NaN,""
-558.025,25.7578,19.9998,NaN,NaN,NaN,NaN,""
-513.602,25.7508,20.0006,NaN,NaN,NaN,NaN,""
-468.146,25.7436,20.0011,NaN,NaN,NaN,NaN,""
-435.4,25.7384,20.0004,NaN,NaN,NaN,NaN,""
-392.26,25.7315,20.0008,NaN,NaN,NaN,NaN,""
-349.363,25.7247,20.0007,NaN,NaN,NaN,NaN,""
-309.263,25.7253,20.0006,NaN,NaN,NaN,NaN,""
-216.256,25.7267,20.0001,NaN,NaN,NaN,NaN,""
-188.857,25.7271,20.0006,NaN,NaN,NaN,NaN,""
-154.804,25.7276,19.9998,NaN,NaN,NaN,NaN,""
-109.806,25.7282,20.0002,NaN,NaN,NaN,NaN,""
-68.8532,25.7288,19.9998,NaN,NaN,NaN,NaN,""
-54.1637,25.7291,19.9999,NaN,NaN,NaN,NaN,""
-40.4938,25.8521,19.9999,NaN,NaN,NaN,NaN,""
-27.5875,25.5846,19.9999,NaN,NaN,NaN,NaN,""
-1.19105,25.644,20,NaN,NaN,NaN,NaN,""
21.4374,25.8172,20,NaN,NaN,NaN,NaN,""
44.0658,25.9904,19.9999,NaN,NaN,NaN,NaN,""
68.3959,25.8456,19.9998,NaN,NaN,NaN,NaN,""
88.6854,25.767,20,NaN,NaN,NaN,NaN,""
118.994,25.9029,20.0003,NaN,NaN,NaN,NaN,""
145.097,25.8538,20.0002,NaN,NaN,NaN,NaN,""
178.51,25.7909,20,NaN,NaN,NaN,NaN,""
214.434,25.6626,20.0001,NaN,NaN,NaN,NaN,""
232.711,25.6251,20.0001,NaN,NaN,NaN,NaN,""
258.225,25.7222,20.0002,NaN,NaN,NaN,NaN,""
273.712,26.033,20.0003,NaN,NaN,NaN,NaN,""
286.584,25.9456,20.0003,NaN,NaN,NaN,NaN,""
304.377,25.8248,19.9998,NaN,NaN,NaN,NaN,""
327.134,25.7446,19.9999,NaN,NaN,NaN,NaN,""
355.666,25.8192,20.0001,NaN,NaN,NaN,NaN,""
386.698,25.8059,20.0001,NaN,NaN,NaN,NaN,""
429.519,25.7876,20.0001,NaN,NaN,NaN,NaN,"Reaction start. Measuring position. Signal correct"
430.475,25.7872,20.0001,-3.43014e-07,-3.20479e-07,-8.57536e-08,-8.01199e-08,""
822.975,25.8293,19.9996,0.246524,14.1716,0.061631,3.54291,""
1089.72,25.7744,19.9997,0.163586,73.6334,0.0408966,18.4084,""
1481.72,25.7378,19.9997,0.0550118,112.687,0.013753,28.1718,""
2179.81,25.8045,20,0.0110716,130.809,0.0027679,32.7022,""
3937.31,25.7651,19.9999,0.00330777,139.999,0.000826942,34.9998,""
7013.97,25.7892,20,0.00232049,148.106,0.000580123,37.0264,""
10556.5,25.8324,20.0001,0.00247224,156.529,0.000618059,39.1324,""
13445.3,26.0075,19.9999,0.00278919,164.081,0.000697299,41.0202,""
16079.6,26.2071,19.9999,0.00322715,171.988,0.000806789,42.9969,""
18785.6,26.07,20,0.0038458,181.516,0.000961449,45.3789,""
21446.2,26.1214,19.9997,0.00462233,192.749,0.00115558,48.1872,""
24833,25.8111,19.9994,0.00578878,210.335,0.00144719,52.5837,""
28435.8,25.6776,19.9999,0.00713272,233.601,0.00178318,58.4002,""
32054.5,25.68,20.0002,0.00842711,261.795,0.00210678,65.4488,""
36003.8,25.6176,19.9999,0.00996928,297.915,0.00249232,74.4787,""
39694.2,25.5499,20,0.0109719,336.797,0.00274298,84.1993,""
43247,25.6207,19.9999,0.0111806,376.323,0.00279516,94.0808,""
46717.3,25.5678,19.9999,0.0109453,414.804,0.00273632,103.701,""
50472.3,25.5342,19.9999,0.010483,455.065,0.00262075,113.766,""
54378.4,25.622,19.9999,0.00999106,495.032,0.00249777,123.758,""
58158.2,25.4434,19.9998,0.00965516,532.091,0.00241379,133.023,""
62005.8,25.4771,19.9995,0.00926965,568.533,0.00231741,142.133,""
66767.4,25.5275,19.9998,0.00879854,611.533,0.00219964,152.883,""
70847.4,25.5411,20.0004,0.00842723,646.685,0.00210681,161.671,""
74647.1,26.4958,20.0009,0.00804498,677.994,0.00201125,169.499,""
77948.4,26.6602,19.9997,0.00768406,703.959,0.00192101,175.99,""
81881,26.6796,20,0.00725893,733.337,0.00181473,183.334,""
85377.8,26.5534,19.9996,0.00689175,758.076,0.00172294,189.519,""
88950.3,26.8216,20.0003,0.00652077,782.034,0.00163019,195.508,""
92432.4,26.7733,19.9999,0.00615946,804.112,0.00153986,201.028,""
96160.5,26.7464,20.0003,0.00577112,826.351,0.00144278,206.588,""
99745.4,26.5032,20.0002,0.00539899,846.376,0.00134975,211.594,""
102954,25.889,19.9998,0.00506175,863.159,0.00126544,215.79,""
106207,25.5154,19.9994,0.00472505,879.074,0.00118126,219.769,""
109279,25.3546,20.0002,0.00442805,893.126,0.00110701,223.282,""
112502,25.3926,19.9999,0.00415597,906.943,0.00103899,226.736,""
115832,25.3598,19.9999,0.00392339,920.384,0.000980848,230.096,""
118910,25.2262,19.9997,0.00374207,932.174,0.000935516,233.044,""
122470,25.2046,19.9998,0.00356186,945.17,0.000890465,236.292,""
126132,25.3646,19.9996,0.00339867,957.906,0.000849667,239.477,""
130142,25.3267,20,0.00323785,971.206,0.000809463,242.801,""
133762,25.1547,19.9999,0.00310907,982.689,0.000777266,245.672,""
137968,25.1141,19.9999,0.00297129,995.472,0.000742822,248.868,""
141664,25.0978,19.9997,0.00286078,1006.25,0.000715194,251.562,""
145710,25.1444,19.9998,0.00275045,1017.6,0.000687612,254.4,""
149369,25.1282,19.9996,0.00265882,1027.5,0.000664706,256.874,""
153668,24.9635,19.9996,0.00255893,1038.71,0.000639734,259.677,""
157857,25.1818,19.9995,0.00246943,1049.24,0.000617357,262.309,""
161250,25.1876,20,0.00240372,1057.5,0.000600931,264.376,""
165400,25.1558,19.9999,0.00232619,1067.32,0.000581548,266.829,""
169353,25.2881,20.0001,0.00225905,1076.38,0.000564762,269.094,""
173291,25.2588,19.9998,0.00219679,1085.15,0.000549198,271.287,""
176899,25.3285,20.0001,0.002144,1092.98,0.000536,273.244,""
180526,25.1721,19.9997,0.00209455,1100.66,0.000523637,275.166,""
184435,25.0742,19.9992,0.00204463,1108.75,0.000511159,277.188,""
188458,25.3615,19.9997,0.00199794,1116.88,0.000499484,279.221,""
191971,25.3399,19.9997,0.00195971,1123.83,0.000489927,280.958,""
195795,25.3152,19.9997,0.00192059,1131.25,0.000480149,282.813,""
199496,25.8126,20.0002,0.00188636,1138.3,0.000471589,284.574,""
202066,26.311,19.9999,0.00186524,1143.11,0.000466311,285.779,""
204973,25.8228,20.0002,0.00183886,1148.5,0.000459714,287.124,""
207532,25.1956,19.9997,0.00181624,1153.17,0.00045406,288.293,""
210649,25.4166,19.9997,0.00179119,1158.8,0.000447798,289.699,""
214571,25.3153,20,0.00176154,1165.76,0.000440385,291.441,""
219402,25.2674,19.9999,0.00172719,1174.19,0.000431797,293.547,""
223082,25.35,19.9998,0.00170214,1180.5,0.000425536,295.125,""
227463,25.3129,19.9999,0.00167339,1187.89,0.000418347,296.973,""
231427,25.3339,20,0.00164796,1194.48,0.00041199,298.619,""
235227,25.3307,19.9996,0.00162436,1200.69,0.00040609,300.173,""
239136,25.3896,19.9996,0.00160113,1207,0.000400282,301.749,""
243525,26.1096,20.0002,0.00157663,1213.97,0.000394157,303.493,""
246399,26.1989,19.9998,0.00156148,1218.48,0.00039037,304.62,""
250722,26.1913,20,0.0015361,1225.18,0.000384026,306.294,""
254421,26.2255,20,0.00151453,1230.82,0.000378633,307.704,""
258048,26.2765,20.0001,0.00149227,1236.27,0.000373067,309.068,""
261943,26.1674,19.9991,0.00147058,1242.04,0.000367646,310.51,""
265312,26.2817,20.0002,0.00145212,1246.96,0.000363029,311.741,""
268878,26.3346,19.999,0.00143253,1252.11,0.000358132,313.027,""
272378,25.3732,19.9997,0.00141299,1257.09,0.000353247,314.272,""
275660,25.2833,19.9996,0.00139368,1261.69,0.000348421,315.423,""
279607,25.3304,19.9995,0.00137386,1267.15,0.000343466,316.788,""
283280,25.3834,19.9999,0.00135423,1272.16,0.000338558,318.041,""
288396,25.4009,19.9998,0.00132799,1279.03,0.000331998,319.756,""
292414,25.4278,20.0012,0.00130789,1284.32,0.000326972,321.08,""
296717,25.4015,19.9998,0.0012857,1289.9,0.000321426,322.475,""
301155,25.4326,19.9995,0.00126219,1295.55,0.000315547,323.888,""
305051,25.4367,19.9996,0.00124313,1300.43,0.000310783,325.109,""
309645,25.4557,20.0001,0.00121964,1306.09,0.00030491,326.522,""
314209,25.4008,19.9999,0.00119649,1311.6,0.000299121,327.901,""
317459,25.4386,19.9995,0.00117991,1315.47,0.000294977,328.866,""
321218,25.3606,19.9998,0.00116156,1319.87,0.000290389,329.967,""
325497,25.4718,19.9995,0.00114091,1324.79,0.000285227,331.198,""
329888,25.4499,20,0.00112068,1329.76,0.000280169,332.439,""
335023,25.5714,20,0.00109651,1335.45,0.000274127,333.862,""
339678,25.5504,19.9999,0.00107426,1340.5,0.000268565,335.126,""
344208,25.5755,19.9998,0.00105355,1345.32,0.000263387,336.33,""
348804,25.6636,19.9998,0.00103285,1350.11,0.000258212,337.529,""
352706,25.8757,19.9999,0.00101573,1354.11,0.000253933,338.528,""
356915,25.6344,20,0.000996942,1358.35,0.000249235,339.587,""
360565,25.6598,19.9998,0.000981446,1361.96,0.000245361,340.489,""
363680,25.775,19.9998,0.00096949,1365,0.000242373,341.249,""
367612,25.7487,19.9997,0.000953175,1368.77,0.000238294,342.194,""
372386,25.773,20,0.000934449,1373.28,0.000233612,343.32,""
376672,25.638,19.9996,0.000918064,1377.25,0.000229516,344.312,""
380187,25.6402,19.9998,0.00090486,1380.45,0.000226215,345.113,""
383905,25.7127,20.0001,0.000890526,1383.79,0.000222631,345.947,""
387944,25.7494,19.9997,0.000874797,1387.35,0.000218699,346.838,""
392051,25.6788,19.9995,0.000859751,1390.91,0.000214938,347.729,""
396289,25.717,19.9997,0.000845033,1394.53,0.000211258,348.632,""
400586,25.6681,19.9999,0.000829877,1398.13,0.000207469,349.531,""
405730,25.6549,19.9998,0.000812961,1402.35,0.00020324,350.588,""
410750,25.7067,19.9999,0.000796127,1406.39,0.000199032,351.597,""
415612,25.5571,20.0002,0.000781292,1410.22,0.000195323,352.556,""
419968,25.5215,19.9999,0.00076685,1413.59,0.000191712,353.398,""
424466,25.5847,20.0003,0.000753022,1417.01,0.000188255,354.253,""
428330,25.585,19.9999,0.000741133,1419.9,0.000185283,354.975,""
432935,25.5008,20,0.000728204,1423.28,0.000182051,355.82,""
436444,25.5599,19.9998,0.000717279,1425.82,0.00017932,356.454,""
440657,25.5912,19.9999,0.00070534,1428.82,0.000176335,357.204,""
445051,25.7012,20,0.000693456,1431.89,0.000173364,357.972,""
448765,25.5746,19.9999,0.000683415,1434.44,0.000170854,358.611,""
452620,25.6324,19.999,0.000673566,1437.06,0.000168392,359.265,""
456180,25.6678,20,0.000665264,1439.44,0.000166316,359.861,""
460056,25.7619,20.0001,0.000656366,1442,0.000164091,360.501,""
464843,25.6095,19.9998,0.000644848,1445.12,0.000161212,361.28,""
469435,25.5355,20.0002,0.000634463,1448.05,0.000158616,362.013,""
473790,25.7068,19.9993,0.000623826,1450.79,0.000155957,362.698,""
478563,25.6644,19.9999,0.000613859,1453.75,0.000153465,363.437,""
483482,25.6674,19.9997,0.000602448,1456.74,0.000150612,364.185,""
489045,25.6973,20,0.000590298,1460.06,0.000147574,365.014,""
494008,25.5682,20.0011,0.000579474,1462.96,0.000144869,365.739,""
498051,25.5568,19.9999,0.000570569,1465.28,0.000142642,366.321,""
502429,26.4325,20.0005,0.000561602,1467.76,0.0001404,366.94,""
505840,26.4166,20.0003,0.000555661,1469.67,0.000138915,367.417,""
509740,26.3102,20.0006,0.000546815,1471.82,0.000136704,367.954,""
513897,26.4491,19.9993,0.000537122,1474.07,0.00013428,368.517,""
518325,26.4476,20.0001,0.000528209,1476.43,0.000132052,369.107,""
522412,26.4549,19.9999,0.000519801,1478.57,0.00012995,369.643,""
526338,26.2106,19.999,0.000512573,1480.6,0.000128143,370.149,""
529405,26.6554,19.9988,0.000507248,1482.16,0.000126812,370.54,""
533826,26.4724,20.0002,0.000498531,1484.38,0.000124633,371.096,""
537992,25.618,19.9998,0.000491461,1486.45,0.000122865,371.611,""
541601,25.4452,19.9997,0.000484614,1488.21,0.000121153,372.052,""
545991,25.2738,19.9997,0.000476757,1490.32,0.000119189,372.579,""
550066,25.4011,19.9997,0.000470187,1492.25,0.000117547,373.062,""
554092,25.0632,19.9994,0.000463715,1494.13,0.000115929,373.532,""
559941,25.0374,19.9999,0.000454718,1496.81,0.000113679,374.204,""
565614,24.9566,19.9999,0.000446403,1499.37,0.000111601,374.843,""
571415,24.9673,19.9995,0.000437722,1501.94,0.00010943,375.484,""
576950,24.9325,19.9999,0.000428933,1504.34,0.000107233,376.084,""
581254,24.98,19.9999,0.000421923,1506.17,0.000105481,376.542,""
586412,25.6925,19.9997,0.000416059,1508.33,0.000104015,377.082,""
590715,25.797,19.9998,0.000409687,1510.11,0.000102422,377.527,""
594655,25.9334,19.9997,0.000403556,1511.71,0.000100889,377.927,""
598881,25.9714,19.9996,0.000397159,1513.4,9.92898e-05,378.35,""
602743,25.9013,20,0.000391079,1514.92,9.77699e-05,378.731,""
602744,25.9016,20,NaN,NaN,NaN,NaN,"Ampoule removed"
602744,25.9016,20,NaN,NaN,NaN,NaN,""