File: data/JAA_CAL350.csv
Summary
Name,"JAA_CAL350.rslt"
Start time,2023 Jun 06 - 12:11
End time,2023 Jun 13 - 12:53
Operator,"JAA"
Results file path,"C:\Users\ge65ley\Desktop\Calorimetry_Results\AXD\Results_files\JAA_CAL350.rslt"
General Experiment Info
Bath temperature,20Â°C
,Sample - 25336:6
Total mass,6g
Name,"JAA_CAL350"
,Component - OPC
Mass,4g
Name,"OPC"
ID,"Karlstadt CEM I 52.5N 12.10.21"

"Time","Temperature [AmbientT(Therm3T)]","Temperature [Temperature]","Heat flow [Signal]","Heat [Signal]","Normalized heat flow [Signal]","Normalized heat [Signal]","Time markers"
-4181.28,25.672,19.9997,NaN,NaN,NaN,NaN,""
-4181.28,25.672,19.9997,4.77167e-07,NaN,1.19292e-07,NaN,""
-4154.94,25.6707,20,1.01243e-06,NaN,2.53108e-07,NaN,""
-4135.74,25.6697,20.0003,8.42065e-07,NaN,2.10516e-07,NaN,""
-4122.61,25.6691,20.0002,9.26233e-07,NaN,2.31558e-07,NaN,""
-4117.85,25.6689,20.0002,9.70553e-07,NaN,2.42638e-07,NaN,""
-4102.53,25.6681,20,5.10561e-07,NaN,1.2764e-07,NaN,""
-4081.69,25.6624,19.9999,6.35488e-07,NaN,1.58872e-07,NaN,""
-4060.84,25.6512,19.9998,7.60414e-07,NaN,1.90104e-07,NaN,""
-4032.81,25.667,19.9998,2.06045e-07,NaN,5.15113e-08,NaN,""
-4010.36,25.9435,19.9997,-2.37782e-07,NaN,-5.94456e-08,NaN,""
-4000.71,25.8222,19.9997,-3.85558e-07,NaN,-9.63895e-08,NaN,""
-3991.06,25.7009,19.9997,-1.88981e-07,NaN,-4.72452e-08,NaN,""
-3961.07,25.7243,19.9996,4.21797e-07,NaN,1.05449e-07,NaN,""
-3952.28,25.7324,19.9996,3.66008e-07,NaN,9.15021e-08,NaN,""
-3908.22,25.8043,20.0001,8.615e-08,NaN,2.15375e-08,NaN,""
-3880.72,25.8061,20.0001,-4.11777e-08,NaN,-1.02944e-08,NaN,""
-3844.27,25.7783,20.0001,4.64295e-07,NaN,1.16074e-07,NaN,""
-3815.16,25.7561,20,-4.69247e-07,NaN,-1.17312e-07,NaN,""
-3807.02,25.7498,20,5.30219e-07,NaN,1.32555e-07,NaN,""
-3755.4,25.8154,20,2.55557e-07,NaN,6.38891e-08,NaN,""
-3717.22,25.8898,20.0001,5.24327e-08,NaN,1.31082e-08,NaN,""
-3703.77,25.8796,20.0001,-1.9106e-08,NaN,-4.77651e-09,NaN,""
-3678.38,25.8603,20.0002,4.62381e-07,NaN,1.15595e-07,NaN,""
-3658.41,25.8451,20.0002,-2.67504e-07,NaN,-6.68761e-08,NaN,""
-3641.12,25.832,20.0002,-1.53643e-07,NaN,-3.84108e-08,NaN,""
-3619.15,25.8153,20.0003,1.24233e-08,NaN,3.10583e-09,NaN,""
-3603.4,25.8034,20.0002,5.27284e-08,NaN,1.31821e-08,NaN,""
-3559.68,25.7702,20,-1.68208e-07,NaN,-4.2052e-08,NaN,""
-3539.52,25.7549,19.9999,4.7817e-07,NaN,1.19542e-07,NaN,""
-3527.57,25.7462,19.9999,2.85853e-07,NaN,7.14632e-08,NaN,""
-3515.62,25.7428,19.9998,9.35359e-08,NaN,2.3384e-08,NaN,""
-3485.99,25.7344,19.9997,1.85187e-07,NaN,4.62967e-08,NaN,""
-3456.35,25.726,19.9997,2.76838e-07,NaN,6.92095e-08,NaN,""
-3430.78,25.7188,19.9997,-3.04549e-07,NaN,-7.61372e-08,NaN,""
-3404.41,25.7113,19.9998,1.9591e-07,NaN,4.89776e-08,NaN,""
-3352.85,25.6967,19.9998,-2.96213e-07,NaN,-7.40533e-08,NaN,""
-3317.28,25.6866,19.9998,-3.8186e-07,NaN,-9.54651e-08,NaN,""
-3281.34,25.6764,19.9997,-1.53613e-07,NaN,-3.84032e-08,NaN,""
-3268.28,25.8449,19.9997,-7.06966e-08,NaN,-1.76742e-08,NaN,""
-3222.96,25.827,19.9996,2.17165e-07,NaN,5.42912e-08,NaN,""
-3197.88,25.792,19.9999,1.88783e-07,NaN,4.71957e-08,NaN,""
-3183.35,25.7567,20,1.49833e-07,NaN,3.74584e-08,NaN,""
-3158.26,25.7512,20.0001,-1.23886e-08,NaN,-3.09714e-09,NaN,""
-3150.83,25.7496,20.0001,-5.26528e-07,NaN,-1.31632e-07,NaN,""
-3141.03,25.7474,20.0001,-1.04087e-08,NaN,-2.60218e-09,NaN,""
-3130.72,25.7452,20.0001,-3.94674e-07,NaN,-9.86686e-08,NaN,""
-3113.09,25.7413,20.0001,4.16888e-07,NaN,1.04222e-07,NaN,""
-3100.28,25.7385,20.0001,-6.16178e-08,NaN,-1.54045e-08,NaN,""
-3095.35,25.7374,20.0001,4.26885e-07,NaN,1.06721e-07,NaN,""
-3086.78,25.7355,20.0001,-1.80791e-07,NaN,-4.51977e-08,NaN,""
-3001.19,25.7168,20,-7.43569e-08,NaN,-1.85892e-08,NaN,""
-2941.29,25.7029,19.9999,6.13679e-08,NaN,1.5342e-08,NaN,""
-2881.38,25.6876,19.9997,1.97093e-07,NaN,4.92732e-08,NaN,""
-2867,25.684,19.9996,-2.27005e-07,NaN,-5.67512e-08,NaN,""
-2833.43,25.6754,19.9995,-1.64714e-07,NaN,-4.11784e-08,NaN,""
-2813.23,25.7289,19.9996,-4.25021e-07,NaN,-1.06255e-07,NaN,""
-2791.27,25.7877,19.9996,-8.73069e-07,NaN,-2.18267e-07,NaN,""
-2776.41,25.8275,19.9996,-3.49189e-07,NaN,-8.72973e-08,NaN,""
-2771.19,25.8414,19.9997,-9.39561e-07,NaN,-2.3489e-07,NaN,""
-2763.32,25.8519,19.9997,-7.02244e-07,NaN,-1.75561e-07,NaN,""
-2755.46,25.8123,19.9997,-4.64927e-07,NaN,-1.16232e-07,NaN,""
-2730.93,25.6887,19.9998,-1.05956e-06,NaN,-2.6489e-07,NaN,""
-2712.7,25.6861,19.9998,-7.68798e-07,NaN,-1.922e-07,NaN,""
-2689.34,25.7026,19.9998,-3.96316e-07,NaN,-9.90789e-08,NaN,""
-2665.99,25.7191,19.9996,-4.89997e-07,NaN,-1.22499e-07,NaN,""
-2652.55,25.7285,19.9995,-4.97688e-07,NaN,-1.24422e-07,NaN,""
-2639.77,25.7376,19.9995,-2.96189e-07,NaN,-7.40473e-08,NaN,""
-2626.99,25.7466,19.9995,-3.26969e-07,NaN,-8.17422e-08,NaN,""
-2622.28,25.7499,19.9996,-4.76491e-07,NaN,-1.19123e-07,NaN,""
-2608.3,25.7598,19.9997,-1.17085e-07,NaN,-2.92714e-08,NaN,""
-2599.28,25.7662,19.9997,-7.67502e-07,NaN,-1.91875e-07,NaN,""
-2586.38,25.7753,19.9998,-3.64304e-07,NaN,-9.10761e-08,NaN,""
-2574.18,25.7585,19.9999,-2.2188e-08,NaN,-5.547e-09,NaN,""
-2556.47,25.7341,20,-4.64092e-07,NaN,-1.16023e-07,NaN,""
-2541.46,25.7135,20.0001,-1.16186e-07,NaN,-2.90466e-08,NaN,""
-2526.44,25.6928,20,2.31719e-07,NaN,5.79297e-08,NaN,""
-2515.15,25.6772,20,-2.94655e-08,NaN,-7.36637e-09,NaN,""
-2505.32,25.6996,19.9999,-1.31447e-07,NaN,-3.28619e-08,NaN,""
-2500.6,25.7104,19.9999,1.62859e-07,NaN,4.07149e-08,NaN,""
-2484.96,25.746,19.9998,-1.24838e-07,NaN,-3.12095e-08,NaN,""
-2470.18,25.7796,19.9998,2.59277e-07,NaN,6.48192e-08,NaN,""
-2462.27,25.7976,19.9998,2.05385e-07,NaN,5.13464e-08,NaN,""
-2445.71,25.7721,19.9999,1.17268e-08,NaN,2.93171e-09,NaN,""
-2432.46,25.7059,19.9999,-1.94766e-07,NaN,-4.86916e-08,NaN,""
-2424.21,25.6842,19.9999,-4.10477e-07,NaN,-1.02619e-07,NaN,""
-2415.97,25.6864,20,-3.23751e-07,NaN,-8.09377e-08,NaN,""
-2406.6,25.689,20,2.25735e-07,NaN,5.64337e-08,NaN,""
-2391.19,25.6933,20.0001,4.30361e-08,NaN,1.0759e-08,NaN,""
-2381.28,25.696,20.0001,2.62261e-07,NaN,6.55653e-08,NaN,""
-2290.92,25.721,19.9998,NaN,NaN,NaN,NaN,""
-2220.8,25.7403,20,NaN,NaN,NaN,NaN,""
-2178.82,25.7519,19.9997,NaN,NaN,NaN,NaN,""
-2176.48,25.7526,19.9997,NaN,NaN,NaN,NaN,""
-2120.93,25.723,20,NaN,NaN,NaN,NaN,""
-2059.74,25.6905,19.9995,NaN,NaN,NaN,NaN,""
-2028.64,25.694,19.9997,NaN,NaN,NaN,NaN,""
-2004.06,25.6967,19.9998,NaN,NaN,NaN,NaN,""
-1830.99,25.716,19.9999,NaN,NaN,NaN,NaN,""
-1829.08,25.7162,19.9999,NaN,NaN,NaN,NaN,""
-1739.64,25.7759,19.9999,NaN,NaN,NaN,NaN,""
-1707.66,25.6803,19.9999,NaN,NaN,NaN,NaN,""
-1668.61,25.7338,19.9998,NaN,NaN,NaN,NaN,""
-1615.68,25.6783,19.9998,NaN,NaN,NaN,NaN,""
-1587.43,25.6487,20.0001,NaN,NaN,NaN,NaN,""
-1569.28,25.7165,20.0003,NaN,NaN,NaN,NaN,""
-1556.32,25.738,20.0001,NaN,NaN,NaN,NaN,""
-1536.79,25.7094,19.9998,NaN,NaN,NaN,NaN,""
-1507.86,25.667,19.9998,NaN,NaN,NaN,NaN,""
-1432.56,25.7584,19.9998,NaN,NaN,NaN,NaN,""
-1364.24,25.7433,19.9998,NaN,NaN,NaN,NaN,""
-1237.15,25.7153,20,NaN,NaN,NaN,NaN,""
-1231.75,25.7153,20,NaN,NaN,NaN,NaN,""
-1156.33,25.7147,19.9995,NaN,NaN,NaN,NaN,""
-1116.21,25.7144,20.0002,NaN,NaN,NaN,NaN,""
-1063.77,25.714,19.9994,NaN,NaN,NaN,NaN,""
-1034.26,25.7339,19.9997,NaN,NaN,NaN,NaN,""
-1004.76,25.7587,19.9999,NaN,NaN,NaN,NaN,""
-947.215,25.8071,19.9999,NaN,NaN,NaN,NaN,""
-906.84,25.7854,19.9999,NaN,NaN,NaN,NaN,""
-866.466,25.7636,20.0003,NaN,NaN,NaN,NaN,""
-839.977,25.7993,20.0003,NaN,NaN,NaN,NaN,""
-805.666,25.8455,19.9999,NaN,NaN,NaN,NaN,""
-775.239,25.6757,19.9999,NaN,NaN,NaN,NaN,""
-758.966,25.7225,19.9998,NaN,NaN,NaN,NaN,""
-740.714,25.7988,19.9998,NaN,NaN,NaN,NaN,""
-679.511,25.7887,19.9997,NaN,NaN,NaN,NaN,""
-620.076,25.7789,20,NaN,NaN,NaN,NaN,""
-535.265,25.7649,19.9999,NaN,NaN,NaN,NaN,""
-494.966,25.7583,20.0007,NaN,NaN,NaN,NaN,""
-451.991,25.7512,20.0011,NaN,NaN,NaN,NaN,""
-417.972,25.7456,20.0004,NaN,NaN,NaN,NaN,""
-326.221,25.7304,20.0007,NaN,NaN,NaN,NaN,""
-213.738,25.7218,20.0003,NaN,NaN,NaN,NaN,""
-101.255,25.7149,19.9999,NaN,NaN,NaN,NaN,""
-41.7255,25.7113,19.9999,NaN,NaN,NaN,NaN,""
-22.534,25.8211,19.9999,NaN,NaN,NaN,NaN,""
-8.93249,25.5474,19.9999,NaN,NaN,NaN,NaN,""
14.6525,25.6411,19.9999,NaN,NaN,NaN,NaN,""
51.6846,25.9584,19.9999,NaN,NaN,NaN,NaN,""
74.9351,25.9643,20,NaN,NaN,NaN,NaN,""
103.014,25.8112,20.0002,NaN,NaN,NaN,NaN,""
141.53,25.8492,20.0004,NaN,NaN,NaN,NaN,""
153.943,25.8614,20,NaN,NaN,NaN,NaN,""
163.068,25.8466,19.9999,NaN,NaN,NaN,NaN,""
217.056,25.7594,19.9999,NaN,NaN,NaN,NaN,""
239.708,25.5712,20,NaN,NaN,NaN,NaN,""
275.314,25.8729,20,NaN,NaN,NaN,NaN,""
299.463,26.0431,20,NaN,NaN,NaN,NaN,""
318.089,25.8792,20,NaN,NaN,NaN,NaN,""
336.716,25.7154,20.0001,NaN,NaN,NaN,NaN,""
361.15,25.7983,20.0001,NaN,NaN,NaN,NaN,""
411.747,25.8358,20.0002,NaN,NaN,NaN,NaN,""
413.83,25.8339,20.0002,NaN,NaN,NaN,NaN,""
454.591,25.798,19.9996,NaN,NaN,NaN,NaN,""
484.15,25.7719,20.0002,NaN,NaN,NaN,NaN,""
528.351,25.7329,20,NaN,NaN,NaN,NaN,""
572.11,25.7449,19.9997,NaN,NaN,NaN,NaN,""
634.141,25.762,19.9999,NaN,NaN,NaN,NaN,""
648.333,25.768,20,NaN,NaN,NaN,NaN,""
671.802,25.778,19.9996,NaN,NaN,NaN,NaN,""
722.482,25.7995,19.9999,NaN,NaN,NaN,NaN,""
730.685,25.6276,19.9999,NaN,NaN,NaN,NaN,""
759.096,25.7251,20,NaN,NaN,NaN,NaN,""
787.507,25.8227,19.9998,NaN,NaN,NaN,NaN,""
837.791,25.845,19.9996,NaN,NaN,NaN,NaN,""
875.935,25.8434,19.9997,NaN,NaN,NaN,NaN,""
931.256,25.7836,19.9997,NaN,NaN,NaN,NaN,""
959.236,25.7648,20.0001,NaN,NaN,NaN,NaN,""
987.216,25.7654,20.0004,NaN,NaN,NaN,NaN,""
1056.86,25.7671,19.9995,NaN,NaN,NaN,NaN,""
1087.21,25.7757,19.9996,NaN,NaN,NaN,NaN,""
1117.56,25.7844,19.9997,NaN,NaN,NaN,NaN,""
1133.72,25.9719,19.9998,NaN,NaN,NaN,NaN,""
1141.43,25.6849,19.9998,NaN,NaN,NaN,NaN,""
1157.23,25.778,19.9998,NaN,NaN,NaN,NaN,""
1173.02,25.8711,19.9999,NaN,NaN,NaN,NaN,""
1192.93,26.1544,19.9999,NaN,NaN,NaN,NaN,""
1209.87,25.9141,20,NaN,NaN,NaN,NaN,""
1272.22,25.8925,20.0001,NaN,NaN,NaN,NaN,""
1289.28,25.9329,19.9999,NaN,NaN,NaN,NaN,""
1306.35,25.9739,19.9996,NaN,NaN,NaN,NaN,""
1329.5,25.9869,19.9997,NaN,NaN,NaN,NaN,""
1352.65,25.899,19.9997,NaN,NaN,NaN,NaN,""
1384.79,25.777,20.0005,NaN,NaN,NaN,NaN,""
1415.94,25.7683,20.0002,NaN,NaN,NaN,NaN,""
1447.38,25.7601,19.9999,NaN,NaN,NaN,NaN,""
1511.9,25.7432,19.9998,NaN,NaN,NaN,NaN,""
1558.13,25.9099,19.9998,NaN,NaN,NaN,NaN,""
1581.8,25.6671,19.9997,NaN,NaN,NaN,NaN,""
1600.3,25.8567,19.9997,NaN,NaN,NaN,NaN,""
1618.8,26.0464,19.9998,NaN,NaN,NaN,NaN,""
1645.98,25.8844,20,NaN,NaN,NaN,NaN,""
1677.27,25.9919,20.0002,NaN,NaN,NaN,NaN,""
1720.56,25.8479,20.0004,NaN,NaN,NaN,NaN,""
1721.87,25.8468,20.0004,NaN,NaN,NaN,NaN,""
1780.06,25.8004,19.9996,NaN,NaN,NaN,NaN,""
1829.41,25.7739,19.9998,NaN,NaN,NaN,NaN,""
1879.48,25.7975,20,NaN,NaN,NaN,NaN,""
1934.65,25.7744,20,NaN,NaN,NaN,NaN,""
1948.95,25.6413,20,NaN,NaN,NaN,NaN,""
1966.85,25.8866,20,NaN,NaN,NaN,NaN,""
2040.41,25.8105,20,NaN,NaN,NaN,NaN,""
2077.24,25.785,20,NaN,NaN,NaN,NaN,""
2121.56,25.7543,20.0002,NaN,NaN,NaN,NaN,""
2160.33,25.7577,19.9999,NaN,NaN,NaN,NaN,""
2199.09,25.7802,19.9997,NaN,NaN,NaN,NaN,""
2247.65,25.8082,19.9999,NaN,NaN,NaN,NaN,""
2278.01,25.7824,19.9999,NaN,NaN,NaN,NaN,""
2308.36,25.7565,19.9999,NaN,NaN,NaN,NaN,""
2349.5,25.9228,19.9997,NaN,NaN,NaN,NaN,""
2358.79,25.811,19.9997,NaN,NaN,NaN,NaN,""
2367.31,25.7248,19.9997,NaN,NaN,NaN,NaN,""
2381.72,25.8552,19.9998,NaN,NaN,NaN,NaN,""
2441.35,25.8141,20,NaN,NaN,NaN,NaN,""
2472.72,25.8488,20.0002,NaN,NaN,NaN,NaN,""
2486.77,25.8643,20.0001,NaN,NaN,NaN,NaN,"Reaction start. Measuring position. Signal correct"
2487.72,25.8633,20.0001,0.000153736,0.00014595,3.84341e-05,3.64875e-05,""
2904.22,25.8726,19.9997,0.31982,25.9429,0.079955,6.48574,""
3364.22,25.7927,19.9996,0.113974,125.587,0.0284934,31.3968,""
4221,25.7725,19.9998,0.016708,166.169,0.004177,41.5423,""
6291.96,25.7871,20.0001,0.00357785,180.374,0.000894462,45.0936,""
9415.22,25.8218,19.9999,0.00195896,188.367,0.000489739,47.0918,""
12213.5,25.9463,20.0003,0.0015425,193.149,0.000385625,48.2872,""
15138.5,25.9917,20,0.00149156,197.627,0.00037289,49.4066,""
17895.5,26.0126,19.9998,0.00137142,201.571,0.000342854,50.3928,""
20841.7,26.1997,19.9998,0.00126946,205.452,0.000317366,51.363,""
24310.7,25.7863,19.9997,0.00119253,209.711,0.000298132,52.4278,""
28219.1,25.705,19.9996,0.00115067,214.276,0.000287667,53.569,""
31636.9,25.7384,19.9999,0.00110486,218.162,0.000276215,54.5405,""
36197.2,25.6258,19.9996,0.00107473,223.097,0.000268683,55.7743,""
40130.6,25.5915,20,0.00109427,227.354,0.000273567,56.8384,""
43931.1,25.5825,20.0001,0.00114949,231.606,0.000287373,57.9014,""
47900.9,25.5969,19.9998,0.00125711,236.364,0.000314277,59.0909,""
51226.1,25.5167,19.9995,0.00139931,240.766,0.000349827,60.1915,""
55173,25.5678,20.0001,0.0016452,246.742,0.0004113,61.6855,""
59149.8,25.4836,19.9998,0.00202015,253.978,0.000505038,63.4946,""
62437.7,25.4864,19.9998,0.00247024,261.323,0.00061756,65.3308,""
66420,25.5176,20.0001,0.00319876,272.546,0.00079969,68.1365,""
70384.2,25.5332,19.9999,0.00410162,286.968,0.0010254,71.742,""
73889,25.6049,20.0001,0.00499662,302.894,0.00124916,75.7236,""
77242.2,26.5129,20,0.00589181,321.146,0.00147295,80.2866,""
80928.1,26.6499,19.9998,0.00682815,344.623,0.00170704,86.1558,""
84838.4,26.7218,20,0.00764233,372.982,0.00191058,93.2456,""
88603.2,26.782,19.9997,0.00816028,402.839,0.00204007,100.71,""
92374.9,26.7205,20,0.00834156,434.055,0.00208539,108.514,""
95944.3,26.7822,20,0.00829503,463.793,0.00207376,115.948,""
98938.5,26.6099,19.9997,0.00816597,488.453,0.00204149,122.113,""
102418,26.0081,19.9999,0.007938,516.479,0.0019845,129.12,""
105468,25.4529,19.9998,0.00769325,540.326,0.00192331,135.081,""
108722,25.5356,20,0.00741593,564.91,0.00185398,141.228,""
111889,25.4397,20.0001,0.00712389,587.931,0.00178097,146.983,""
115307,25.4632,19.9997,0.0068029,611.736,0.00170073,152.934,""
118320,25.5504,19.9999,0.00650157,631.782,0.00162539,157.946,""
121590,25.3248,19.9995,0.00617694,652.511,0.00154424,163.128,""
125260,25.2354,19.9998,0.0058182,674.52,0.00145455,168.63,""
128970,25.2327,19.9995,0.00546345,695.441,0.00136586,173.86,""
133108,25.3708,20.0001,0.00507482,717.247,0.0012687,179.312,""
136733,25.0692,20.0003,0.00474975,735.051,0.00118744,183.763,""
140072,25.0884,19.9998,0.00446629,750.437,0.00111657,187.609,""
144080,25.1032,20,0.00415041,767.696,0.0010376,191.924,""
148544,25.1594,20,0.00383265,785.498,0.000958162,196.374,""
152716,24.9691,19.9997,0.00356824,800.925,0.000892059,200.231,""
156863,25.0698,20.0002,0.0033339,815.224,0.000833474,203.806,""
161284,25.3186,19.9999,0.00311507,829.475,0.000778768,207.369,""
165044,25.2057,19.9999,0.00294706,840.866,0.000736765,210.216,""
168982,25.2866,19.9999,0.00279274,852.16,0.000698186,213.04,""
172712,25.2987,20.0002,0.00266499,862.333,0.000666248,215.583,""
176776,25.4506,19.9999,0.0025474,872.92,0.000636849,218.23,""
180150,25.1734,20.0003,0.00246447,881.37,0.000616118,220.343,""
184090,25.1623,20.0001,0.00237751,890.905,0.000594378,222.726,""
187821,25.2295,19.9992,0.00230488,899.636,0.000576219,224.909,""
191618,25.2557,20,0.00223884,908.259,0.000559709,227.065,""
195817,25.323,19.9996,0.0021726,917.518,0.00054315,229.379,""
199396,25.3131,19.9999,0.00212399,925.203,0.000530996,231.301,""
202081,26.3575,19.9999,0.00208744,930.853,0.000521859,232.713,""
204971,26.0103,20.0003,0.00205126,936.834,0.000512814,234.208,""
207293,25.8476,19.9998,0.00202475,941.563,0.000506187,235.391,""
209850,25.8208,19.9997,0.00199364,946.699,0.000498411,236.675,""
213446,25.2934,19.9999,0.00195537,953.8,0.000488842,238.45,""
218028,25.3012,19.9996,0.00190912,962.65,0.000477279,240.662,""
222101,25.3408,19.9999,0.00187121,970.35,0.000467802,242.587,""
226486,25.2841,20.0001,0.00183421,978.473,0.000458552,244.618,""
230393,25.3158,19.9999,0.00180422,985.577,0.000451054,246.394,""
234746,25.3349,19.9998,0.00177068,993.359,0.00044267,248.34,""
238998,25.3949,19.9999,0.00174184,1000.83,0.00043546,250.207,""
243384,26.0781,20.0007,0.00171275,1008.41,0.000428189,252.102,""
246725,26.1626,19.9997,0.00169357,1014.1,0.000423393,253.524,""
250670,26.1891,20.0005,0.00166994,1020.73,0.000417485,255.183,""
253930,26.2142,19.9997,0.00165077,1026.14,0.000412692,256.536,""
257643,26.2837,20.0002,0.00163062,1032.24,0.000407656,258.059,""
261251,26.1849,19.9998,0.00161146,1038.08,0.000402866,259.521,""
264945,26.297,20.0002,0.00159208,1044,0.000398019,261.001,""
268743,26.3252,20.0005,0.00157387,1050.02,0.000393467,262.504,""
271779,25.6816,19.9998,0.00156142,1054.77,0.000390354,263.694,""
274455,25.3497,20,0.00154699,1058.93,0.000386747,264.733,""
278381,25.3338,19.9997,0.00153086,1064.98,0.000382714,266.244,""
281938,25.3603,19.9998,0.00151634,1070.39,0.000379084,267.598,""
286487,25.3953,19.9999,0.00149854,1077.25,0.000374635,269.312,""
291401,25.4018,19.999,0.00148237,1084.57,0.000370592,271.143,""
295332,25.405,19.9999,0.00147002,1090.38,0.000367506,272.594,""
298762,25.4183,20,0.00145757,1095.4,0.000364393,273.849,""
303245,25.4257,19.9997,0.00144444,1101.9,0.000361109,275.475,""
307449,25.4185,20,0.00143201,1107.95,0.000358002,276.987,""
311603,25.445,20.0002,0.00141952,1113.87,0.000354879,278.468,""
315135,25.4545,19.9998,0.00141016,1118.87,0.00035254,279.717,""
318569,25.4369,19.9995,0.00140134,1123.7,0.000350336,280.924,""
322934,25.4349,19.9996,0.00138941,1129.79,0.000347353,282.447,""
326627,25.535,19.9998,0.0013801,1134.9,0.000345024,283.725,""
331031,25.554,20.0001,0.00136939,1140.95,0.000342348,285.238,""
335575,25.4926,19.9994,0.00135854,1147.15,0.000339636,286.788,""
340097,25.5539,19.9995,0.00134676,1153.27,0.000336689,288.317,""
343901,25.5604,20,0.00133775,1158.37,0.000334439,289.594,""
348289,25.5681,19.9999,0.00132693,1164.22,0.000331734,291.056,""
351691,25.5943,20,0.00132004,1168.73,0.000330011,292.181,""
356158,25.5759,20.0002,0.00130898,1174.59,0.000327244,293.648,""
359852,25.8523,19.9999,0.00129992,1179.41,0.00032498,294.853,""
363997,25.6197,20,0.00129038,1184.78,0.000322594,296.195,""
367590,25.7677,19.9998,0.00128102,1189.4,0.000320255,297.35,""
371636,25.6698,19.9998,0.00127186,1194.56,0.000317964,298.641,""
376117,25.612,19.9997,0.00126137,1200.24,0.000315343,300.059,""
380199,25.6182,19.9999,0.00125056,1205.36,0.00031264,301.341,""
384097,25.705,19.9999,0.00124089,1210.22,0.000310222,302.555,""
388223,25.7041,20.0004,0.00122996,1215.32,0.000307489,303.83,""
392852,25.7238,20,0.00121706,1220.98,0.000304264,305.246,""
397405,25.7386,20.0002,0.0012049,1226.5,0.000301224,306.625,""
403282,25.6476,19.9996,0.00118885,1233.53,0.000297213,308.383,""
407500,25.6016,19.9998,0.00117687,1238.52,0.000294216,309.63,""
411655,25.7078,19.9996,0.00116448,1243.38,0.00029112,310.846,""
416267,25.5706,19.9999,0.00115066,1248.72,0.000287666,312.181,""
419555,25.4772,20.0001,0.00114056,1252.49,0.00028514,313.123,""
424064,25.5848,19.9997,0.00112721,1257.61,0.000281803,314.401,""
427537,25.5382,19.9999,0.00111685,1261.5,0.000279211,315.376,""
431993,25.6748,20,0.00110259,1266.45,0.000275648,316.612,""
436370,25.578,19.9997,0.00108803,1271.24,0.000272008,317.81,""
440148,25.5559,19.9996,0.00107556,1275.33,0.00026889,318.832,""
443760,25.5728,19.9998,0.00106379,1279.19,0.000265948,319.798,""
447842,25.5721,19.9995,0.0010506,1283.51,0.00026265,320.877,""
451820,25.673,19.9999,0.00103915,1287.66,0.000259788,321.916,""
455179,25.8169,19.9998,0.00102847,1291.13,0.000257118,322.783,""
459371,25.7302,19.9998,0.00101537,1295.41,0.000253843,323.853,""
464158,25.6452,20.0002,0.00100087,1300.24,0.000250217,325.059,""
468011,25.5716,19.9994,0.000988135,1304.07,0.000247034,326.017,""
472105,25.6191,19.9999,0.000975706,1308.09,0.000243926,327.022,""
476282,25.6552,20,0.000963401,1312.14,0.00024085,328.035,""
481075,25.6875,19.9995,0.00094945,1316.73,0.000237362,329.181,""
486371,25.6897,20.0001,0.000934239,1321.71,0.00023356,330.428,""
490638,25.7372,19.9996,0.000921214,1325.67,0.000230303,331.418,""
495155,25.5547,19.9999,0.000907398,1329.8,0.000226849,332.451,""
501034,25.6012,20.0004,0.000890688,1335.09,0.000222672,333.773,""
504565,26.328,19.9998,0.000880653,1338.22,0.000220163,334.555,""
508380,26.4373,19.9997,0.000869873,1341.56,0.000217468,335.389,""
512379,26.4207,19.9997,0.00085744,1345.01,0.00021436,336.253,""
516692,26.4245,19.9998,0.000844704,1348.68,0.000211176,337.171,""
520768,26.4126,19.9998,0.000832571,1352.1,0.000208143,338.025,""
524505,26.4918,19.9999,0.000822152,1355.19,0.000205538,338.798,""
527924,26.4596,19.9995,0.000811494,1357.98,0.000202873,339.496,""
531389,26.6113,19.9998,0.000802463,1360.78,0.000200616,340.195,""
535472,26.5749,19.9997,0.000791404,1364.03,0.000197851,341.008,""
539653,25.3514,19.9997,0.00077989,1367.32,0.000194972,341.829,""
543361,25.3966,19.9998,0.000769008,1370.19,0.000192252,342.547,""
547954,25.2297,19.9998,0.00075848,1373.7,0.00018962,343.424,""
551850,25.3096,20,0.000749092,1376.63,0.000187273,344.158,""
556631,25.0229,19.9996,0.000736899,1380.18,0.000184225,345.045,""
561300,25.0537,19.9998,0.000726532,1383.6,0.000181633,345.899,""
567963,24.9402,19.9997,0.00071106,1388.39,0.000177765,347.097,""
575517,24.9265,19.9999,0.000694114,1393.7,0.000173529,348.424,""
580304,24.9421,19.9997,0.000684949,1397,0.000171237,349.249,""
585695,25.6434,19.9995,0.000672569,1400.65,0.000168142,350.163,""
590006,25.7099,19.9999,0.000664374,1403.54,0.000166094,350.884,""
594193,25.862,19.9998,0.000655124,1406.3,0.000163781,351.575,""
598102,25.9849,19.9998,0.000646733,1408.84,0.000161683,352.21,""
602196,25.9946,19.9997,0.000637645,1411.47,0.000159411,352.868,""
603094,NaN,NaN,0.000633933,1412.04,0.000158483,353.011,""
603094,NaN,NaN,NaN,NaN,NaN,NaN,"Ampoule removed"