File: data/JAA_CAL348.csv
Summary
Name,"JAA_CAL348.rslt"
Start time,2023 Jun 06 - 12:10
End time,2023 Jun 13 - 12:50
Operator,"JAA"
Results file path,"C:\Users\ge65ley\Desktop\Calorimetry_Results\AXD\Results_files\JAA_CAL348.rslt"
General Experiment Info
Bath temperature,20Â°C
,Sample - 25336:4
Total mass,6g
Name,"JAA_CAL348"
,Component - OPC
Mass,4g
Name,"OPC"
ID,"Karlstadt CEM I 52.5N 12.10.21"

"Time","Temperature [AmbientT(Therm3T)]","Temperature [Temperature]","Heat flow [Signal]","Heat [Signal]","Normalized heat flow [Signal]","Normalized heat [Signal]","Time markers"
-4285.73,25.6464,19.9998,NaN,NaN,NaN,NaN,""
-4285.53,25.6464,19.9998,1.05731e-06,NaN,2.64327e-07,NaN,""
-4263.75,25.6488,19.9998,9.92424e-07,NaN,2.48106e-07,NaN,""
-4248.44,25.6504,19.9998,9.68794e-07,NaN,2.42199e-07,NaN,""
-4231.55,25.6523,19.9998,9.75767e-07,NaN,2.43942e-07,NaN,""
-4202.47,25.6555,19.9999,4.44484e-07,NaN,1.11121e-07,NaN,""
-4175.37,25.6584,19.9999,2.91408e-07,NaN,7.2852e-08,NaN,""
-4154.48,25.6607,19.9999,5.97078e-07,NaN,1.4927e-07,NaN,""
-4141.79,25.6621,20.0001,6.57323e-07,NaN,1.64331e-07,NaN,""
-4116.23,25.6649,20.0005,6.40791e-07,NaN,1.60198e-07,NaN,""
-4113.24,25.6652,20.0004,6.38856e-07,NaN,1.59714e-07,NaN,""
-4097.39,25.6556,19.9998,6.28608e-07,NaN,1.57152e-07,NaN,""
-4047.56,25.6253,19.9998,5.96381e-07,NaN,1.49095e-07,NaN,""
-4033.93,25.617,19.9998,4.35427e-07,NaN,1.08857e-07,NaN,""
-4031.96,25.6158,19.9998,4.1209e-07,NaN,1.03022e-07,NaN,""
-4018.94,25.7506,19.9998,2.9221e-07,NaN,7.30524e-08,NaN,""
-4008.3,25.8606,19.9997,4.29542e-07,NaN,1.07385e-07,NaN,""
-4002.57,25.8711,19.9997,3.33652e-07,NaN,8.3413e-08,NaN,""
-3996.84,25.8467,19.9997,2.37763e-07,NaN,5.94407e-08,NaN,""
-3967.36,25.7213,19.9996,1.43748e-07,NaN,3.59369e-08,NaN,""
-3952.35,25.7197,19.9997,3.0387e-08,NaN,7.59676e-09,NaN,""
-3935.97,25.7513,19.9999,-9.59874e-08,NaN,-2.39968e-08,NaN,""
-3928.62,25.7655,19.9999,2.96947e-08,NaN,7.42367e-09,NaN,""
-3901.88,25.817,20.0001,-9.20057e-08,NaN,-2.30014e-08,NaN,""
-3887.44,25.8289,20.0001,-8.83416e-08,NaN,-2.20854e-08,NaN,""
-3850.16,25.7465,20.0001,-4.80079e-08,NaN,-1.2002e-08,NaN,""
-3841.68,25.7278,20.0001,-2.05427e-07,NaN,-5.13568e-08,NaN,""
-3837.14,25.7296,20.0001,-2.02922e-07,NaN,-5.07305e-08,NaN,""
-3781.92,25.7516,20,-1.69627e-08,NaN,-4.24068e-09,NaN,""
-3758.89,25.7774,20,-3.49052e-08,NaN,-8.72631e-09,NaN,""
-3735.87,25.8394,20.0001,-5.28477e-08,NaN,-1.32119e-08,NaN,""
-3714.45,25.8951,20.0001,-1.11987e-07,NaN,-2.79968e-08,NaN,""
-3693.03,25.8704,20.0002,-1.71126e-07,NaN,-4.27816e-08,NaN,""
-3687.16,25.8636,20.0002,-2.19405e-09,NaN,-5.48513e-10,NaN,""
-3663.5,25.8363,20.0003,-1.6198e-07,NaN,-4.04949e-08,NaN,""
-3648.65,25.8192,20.0002,-2.16529e-07,NaN,-5.41323e-08,NaN,""
-3614.03,25.7792,20.0001,-2.70696e-07,NaN,-6.76741e-08,NaN,""
-3607.3,25.7715,20.0001,-1.10827e-07,NaN,-2.77068e-08,NaN,""
-3601.98,25.7677,20.0001,-2.01877e-07,NaN,-5.04691e-08,NaN,""
-3596.66,25.7657,20,-2.92926e-07,NaN,-7.32315e-08,NaN,""
-3562.98,25.7531,19.9999,-6.79755e-08,NaN,-1.69939e-08,NaN,""
-3546.66,25.747,19.9999,-2.24335e-07,NaN,-5.60837e-08,NaN,""
-3514.9,25.7351,19.9998,2.19814e-07,NaN,5.49534e-08,NaN,""
-3491.3,25.7263,19.9997,5.11446e-09,NaN,1.27861e-09,NaN,""
-3472.5,25.7192,19.9996,-2.33475e-07,NaN,-5.83688e-08,NaN,""
-3448.93,25.7104,19.9996,-2.16286e-07,NaN,-5.40715e-08,NaN,""
-3445.5,25.7091,19.9996,-1.96438e-07,NaN,-4.91096e-08,NaN,""
-3423.54,25.7009,19.9998,-6.94121e-08,NaN,-1.7353e-08,NaN,""
-3403.7,25.6934,20,-1.90175e-07,NaN,-4.75438e-08,NaN,""
-3358.5,25.6765,19.9999,-4.65285e-07,NaN,-1.16321e-07,NaN,""
-3333.36,25.6671,19.9998,-5.76091e-07,NaN,-1.44023e-07,NaN,""
-3324.37,25.7198,19.9998,-6.15697e-07,NaN,-1.53924e-07,NaN,""
-3315.39,25.7725,19.9997,-6.55303e-07,NaN,-1.63826e-07,NaN,""
-3302.22,25.6655,19.9997,-7.13336e-07,NaN,-1.78334e-07,NaN,""
-3291.91,25.6217,19.9996,-6.20401e-07,NaN,-1.551e-07,NaN,""
-3269.48,25.7532,19.9995,-4.18182e-07,NaN,-1.04545e-07,NaN,""
-3255.5,25.7708,19.9994,-2.79782e-07,NaN,-6.99456e-08,NaN,""
-3240.77,25.7734,19.9995,-1.34021e-07,NaN,-3.35053e-08,NaN,""
-3240.03,25.7735,19.9995,-1.26659e-07,NaN,-3.16648e-08,NaN,""
-3227.17,25.7758,19.9996,-2.52451e-07,NaN,-6.31128e-08,NaN,""
-3210.52,25.7787,19.9998,-9.78704e-09,NaN,-2.44676e-09,NaN,""
-3196.17,25.7812,20,-9.08108e-08,NaN,-2.27027e-08,NaN,""
-3190.03,25.7823,20,-1.25483e-07,NaN,-3.13707e-08,NaN,""
-3188.1,25.7826,20,-5.69496e-08,NaN,-1.42374e-08,NaN,""
-3186.48,25.7816,20,-1.08953e-08,NaN,-2.72381e-09,NaN,""
-3138.11,25.7525,20,-1.49017e-07,NaN,-3.72543e-08,NaN,""
-3096.59,25.7274,20,3.06939e-08,NaN,7.67348e-09,NaN,""
-3065.44,25.7086,20,-1.17725e-07,NaN,-2.94311e-08,NaN,""
-3039.24,25.6964,20,-1.3016e-07,NaN,-3.254e-08,NaN,""
-3016.44,25.6967,20,2.79663e-07,NaN,6.99158e-08,NaN,""
-2967.85,25.6975,20,1.7851e-07,NaN,4.46274e-08,NaN,""
-2938.22,25.698,20,-1.45143e-07,NaN,-3.62858e-08,NaN,""
-2914.54,25.6983,20,5.74555e-08,NaN,1.43639e-08,NaN,""
-2904.71,25.6985,20,-1.03982e-08,NaN,-2.59955e-09,NaN,""
-2893.33,25.6987,19.9999,-8.89238e-08,NaN,-2.22309e-08,NaN,""
-2870.7,25.6758,19.9996,-2.45082e-07,NaN,-6.12706e-08,NaN,""
-2856.02,25.661,19.9994,9.23404e-08,NaN,2.30851e-08,NaN,""
-2844.84,25.6498,19.9994,2.41541e-07,NaN,6.03854e-08,NaN,""
-2824.65,25.6687,19.9995,8.37906e-08,NaN,2.09476e-08,NaN,""
-2804.46,25.7348,19.9996,-7.74217e-08,NaN,-1.93554e-08,NaN,""
-2779.03,25.818,19.9997,-3.01234e-07,NaN,-7.53085e-08,NaN,""
-2756.64,25.7415,19.9997,-4.55489e-07,NaN,-1.13872e-07,NaN,""
-2728.78,25.6464,19.9998,-5.18022e-07,NaN,-1.29506e-07,NaN,""
-2700.92,25.6931,19.9997,-5.35292e-07,NaN,-1.33823e-07,NaN,""
-2685.27,25.7387,19.9997,-3.09136e-07,NaN,-7.72841e-08,NaN,""
-2677.97,25.76,19.9997,-3.33473e-07,NaN,-8.33683e-08,NaN,""
-2670.8,25.7628,19.9996,-3.55346e-07,NaN,-8.88364e-08,NaN,""
-2652,25.77,19.9996,-1.12034e-07,NaN,-2.80085e-08,NaN,""
-2631.59,25.7778,19.9995,1.30557e-07,NaN,3.26393e-08,NaN,""
-2616.39,25.7836,19.9996,2.49886e-07,NaN,6.24715e-08,NaN,""
-2588.05,25.7944,19.9998,2.53613e-07,NaN,6.34032e-08,NaN,""
-2578.09,25.7983,19.9998,7.57157e-09,NaN,1.89289e-09,NaN,""
-2560.94,25.8048,19.9999,2.32194e-07,NaN,5.80486e-08,NaN,""
-2559.27,25.8055,19.9999,2.13657e-07,NaN,5.34142e-08,NaN,""
-2537.09,25.7444,20,-3.17255e-08,NaN,-7.93137e-09,NaN,""
-2514.92,25.6833,19.9999,-2.50997e-07,NaN,-6.27492e-08,NaN,""
-2491.28,25.7231,19.9998,-1.44155e-07,NaN,-3.60388e-08,NaN,""
-2486.53,25.734,19.9997,-1.22665e-07,NaN,-3.06662e-08,NaN,""
-2454.9,25.8071,19.9997,NaN,NaN,NaN,NaN,""
-2423.26,25.7032,19.9998,NaN,NaN,NaN,NaN,""
-2408.93,25.69,19.9999,NaN,NaN,NaN,NaN,""
-2371.42,25.6949,20,NaN,NaN,NaN,NaN,""
-2329.59,25.7086,20,NaN,NaN,NaN,NaN,""
-2280.79,25.7736,19.9999,NaN,NaN,NaN,NaN,""
-2255.2,25.7473,19.9999,NaN,NaN,NaN,NaN,""
-2229.61,25.721,19.9998,NaN,NaN,NaN,NaN,""
-2211.73,25.8817,19.9998,NaN,NaN,NaN,NaN,""
-2186.34,25.7313,19.9997,NaN,NaN,NaN,NaN,""
-2147.31,25.7266,19.9999,NaN,NaN,NaN,NaN,""
-2118.25,25.7231,20.0001,NaN,NaN,NaN,NaN,""
-2028.1,25.7122,19.9999,NaN,NaN,NaN,NaN,""
-1941.63,25.7064,19.9998,NaN,NaN,NaN,NaN,""
-1850.99,25.7003,19.9999,NaN,NaN,NaN,NaN,""
-1791.97,25.7415,20.0001,NaN,NaN,NaN,NaN,""
-1770.2,25.7567,20.0005,NaN,NaN,NaN,NaN,""
-1740.19,25.7776,19.9998,NaN,NaN,NaN,NaN,""
-1732.95,25.7827,19.9998,NaN,NaN,NaN,NaN,""
-1707.31,25.7041,19.9999,NaN,NaN,NaN,NaN,""
-1676.18,25.7684,20,NaN,NaN,NaN,NaN,""
-1641.39,25.7242,19.9999,NaN,NaN,NaN,NaN,""
-1612.35,25.6873,19.9998,NaN,NaN,NaN,NaN,""
-1588.45,25.7033,20,NaN,NaN,NaN,NaN,""
-1564.73,25.7516,20.0003,NaN,NaN,NaN,NaN,""
-1544.06,25.7287,20.0001,NaN,NaN,NaN,NaN,""
-1515.45,25.678,19.9998,NaN,NaN,NaN,NaN,""
-1487.88,25.6839,19.9998,NaN,NaN,NaN,NaN,""
-1434.68,25.7503,19.9998,NaN,NaN,NaN,NaN,""
-1382.06,25.73,19.9998,NaN,NaN,NaN,NaN,""
-1329.43,25.7098,19.9998,NaN,NaN,NaN,NaN,""
-1280.9,25.7547,19.9997,NaN,NaN,NaN,NaN,""
-1256.66,25.7493,19.9999,NaN,NaN,NaN,NaN,""
-1232.42,25.6446,20.0001,NaN,NaN,NaN,NaN,""
-1216.26,25.6639,20,NaN,NaN,NaN,NaN,""
-1196.88,25.709,19.9998,NaN,NaN,NaN,NaN,""
-1171.4,25.6974,19.9997,NaN,NaN,NaN,NaN,""
-1122.93,25.6751,19.9997,NaN,NaN,NaN,NaN,""
-1037.15,25.7287,19.9998,NaN,NaN,NaN,NaN,""
-936.507,25.7916,20,NaN,NaN,NaN,NaN,""
-869.714,25.7574,20,NaN,NaN,NaN,NaN,""
-833.343,25.8083,20.0001,NaN,NaN,NaN,NaN,""
-799.48,25.834,20,NaN,NaN,NaN,NaN,""
-772.73,25.6403,19.9999,NaN,NaN,NaN,NaN,""
-741.868,25.7783,19.9998,NaN,NaN,NaN,NaN,""
-679.23,25.7742,19.9997,NaN,NaN,NaN,NaN,""
-631.628,25.7711,20,NaN,NaN,NaN,NaN,""
-600.292,25.7519,20,NaN,NaN,NaN,NaN,""
-536.23,25.7125,19.9998,NaN,NaN,NaN,NaN,""
-514.019,25.7291,20.0002,NaN,NaN,NaN,NaN,""
-491.807,25.7492,20.0006,NaN,NaN,NaN,NaN,""
-468.96,25.7698,20.0008,NaN,NaN,NaN,NaN,""
-446.351,25.6902,20.0011,NaN,NaN,NaN,NaN,""
-432.539,25.7067,20.0008,NaN,NaN,NaN,NaN,""
-413.605,25.7802,20.0004,NaN,NaN,NaN,NaN,""
-397.021,25.7884,20.0005,NaN,NaN,NaN,NaN,""
-370.469,25.7577,20.0008,NaN,NaN,NaN,NaN,""
-338.851,25.7293,20.0007,NaN,NaN,NaN,NaN,""
-290.264,25.738,20.0006,NaN,NaN,NaN,NaN,""
-245.548,25.7306,20.0004,NaN,NaN,NaN,NaN,""
-194.461,25.6605,20.0001,NaN,NaN,NaN,NaN,""
-180.761,25.6489,20.0003,NaN,NaN,NaN,NaN,""
-167.062,25.668,20.0006,NaN,NaN,NaN,NaN,""
-136.906,25.7101,19.9999,NaN,NaN,NaN,NaN,""
-119.88,25.7116,19.9999,NaN,NaN,NaN,NaN,""
-88.0113,25.7144,20.0002,NaN,NaN,NaN,NaN,""
-47.0582,25.718,19.9998,NaN,NaN,NaN,NaN,""
-38.8277,25.7187,19.9999,NaN,NaN,NaN,NaN,""
-17.23,25.8359,19.9999,NaN,NaN,NaN,NaN,""
-5.79254,25.5846,19.9999,NaN,NaN,NaN,NaN,""
20.6039,25.644,20,NaN,NaN,NaN,NaN,""
43.2324,25.8172,20,NaN,NaN,NaN,NaN,""
65.8608,25.9904,19.9999,NaN,NaN,NaN,NaN,""
90.1909,25.8456,19.9998,NaN,NaN,NaN,NaN,""
110.48,25.767,20,NaN,NaN,NaN,NaN,""
140.789,25.9029,20.0003,NaN,NaN,NaN,NaN,""
166.892,25.8538,20.0002,NaN,NaN,NaN,NaN,""
200.305,25.7909,20,NaN,NaN,NaN,NaN,""
236.23,25.7204,20.0001,NaN,NaN,NaN,NaN,""
264.605,25.6635,20.0002,NaN,NaN,NaN,NaN,""
295.507,26.033,20.0003,NaN,NaN,NaN,NaN,""
308.379,25.9456,20.0003,NaN,NaN,NaN,NaN,""
326.172,25.8247,19.9998,NaN,NaN,NaN,NaN,""
348.929,25.7458,19.9998,NaN,NaN,NaN,NaN,""
377.958,25.826,19.9999,NaN,NaN,NaN,NaN,""
450.012,25.7905,20,NaN,NaN,NaN,NaN,""
504.502,25.766,20,NaN,NaN,NaN,NaN,""
598.738,25.7321,19.9998,NaN,NaN,NaN,NaN,""
662.848,25.7704,19.9998,NaN,NaN,NaN,NaN,""
726.957,25.8087,20,NaN,NaN,NaN,NaN,""
745.036,25.6628,20.0001,NaN,NaN,NaN,NaN,""
772.114,25.7534,20.0001,NaN,NaN,NaN,NaN,""
799.192,25.8439,19.9998,NaN,NaN,NaN,NaN,""
824.747,25.8448,19.9996,NaN,NaN,NaN,NaN,""
864.487,25.8461,19.9996,NaN,NaN,NaN,NaN,""
912.086,25.8206,19.9997,NaN,NaN,NaN,NaN,""
1009.84,25.7683,20.0001,NaN,NaN,NaN,NaN,""
1048.31,25.7545,19.9997,NaN,NaN,NaN,NaN,""
1086.79,25.7643,19.9993,NaN,NaN,NaN,NaN,""
1115.14,25.7716,19.9998,NaN,NaN,NaN,NaN,""
1121.5,25.7733,19.9998,NaN,NaN,NaN,NaN,""
1138.61,25.9346,19.9998,NaN,NaN,NaN,NaN,""
1147.21,25.6496,19.9998,NaN,NaN,NaN,NaN,""
1177.13,25.851,19.9999,NaN,NaN,NaN,NaN,""
1197.6,26.1498,20,NaN,NaN,NaN,NaN,""
1208.79,25.9087,20,NaN,NaN,NaN,NaN,""
1249.92,25.9052,20,NaN,NaN,NaN,NaN,""
1291.06,25.9018,19.9998,NaN,NaN,NaN,NaN,""
1315.27,26.0616,19.9997,NaN,NaN,NaN,NaN,""
1348.89,25.944,19.9999,NaN,NaN,NaN,NaN,""
1382.52,25.8265,20.0002,NaN,NaN,NaN,NaN,""
1424.8,25.7955,20.0002,NaN,NaN,NaN,NaN,""
1478.66,25.756,19.9995,NaN,NaN,NaN,NaN,""
1514.95,25.7294,19.9997,NaN,NaN,NaN,NaN,""
1540.1,25.8022,19.9998,NaN,NaN,NaN,NaN,""
1565.25,25.8751,19.9997,NaN,NaN,NaN,NaN,""
1606.72,25.8094,19.9995,NaN,NaN,NaN,NaN,""
1616.57,25.967,19.9996,NaN,NaN,NaN,NaN,""
1626.41,26.1247,19.9997,NaN,NaN,NaN,NaN,""
1651.52,25.9113,20,NaN,NaN,NaN,NaN,"Reaction start. Measuring position. Signal correct"
1652.47,25.9032,20,6.6633e-06,6.32389e-06,1.66582e-06,1.58097e-06,""
2032.47,25.8228,20,0.245986,12.0746,0.0614964,3.01864,""
2269.22,25.8258,19.9998,0.192667,69.6384,0.0481667,17.4096,""
2683.66,25.8032,19.9999,0.0629675,117.873,0.0157419,29.4682,""
3301.83,25.826,19.9999,0.0145451,137.598,0.00363628,34.3995,""
4667.99,26.019,19.9998,0.00373005,146.689,0.000932513,36.6722,""
7441.85,25.7553,19.9998,0.00219742,154.29,0.000549355,38.5725,""
10988.3,25.8787,19.9999,0.00195743,161.6,0.000489358,40.4,""
14198.8,25.9353,20,0.00180172,167.6,0.000450429,41.9001,""
17094.2,25.94,19.9999,0.0017691,172.748,0.000442275,43.1869,""
20314.6,26.0144,19.9997,0.00184123,178.531,0.000460308,44.6328,""
23408.4,25.8504,20,0.00201984,184.47,0.000504959,46.1175,""
27075,25.743,19.9998,0.00236529,192.463,0.000591324,48.1158,""
30456.3,25.7071,19.9999,0.00285437,201.236,0.000713592,50.309,""
34101.7,25.5715,20.0001,0.00366354,212.997,0.000915886,53.2493,""
38522.2,25.5988,20.0001,0.00510396,232.293,0.00127599,58.0731,""
42274,25.6546,19.9997,0.00642598,253.913,0.00160649,63.4783,""
45556.9,25.4856,20.0001,0.00754297,276.87,0.00188574,69.2176,""
48947.2,25.5412,19.9999,0.00853051,304.181,0.00213263,76.0453,""
52431.1,25.5295,19.9996,0.00926779,335.276,0.00231695,83.819,""
56092.4,25.512,20,0.00976979,370.214,0.00244245,92.5536,""
59793.8,25.5099,19.9995,0.00986579,406.673,0.00246645,101.668,""
63628.3,25.4835,19.9996,0.00977572,444.337,0.00244393,111.084,""
67400.6,25.492,19.9993,0.00956441,480.878,0.0023911,120.219,""
71524.3,25.3982,20.0001,0.00921679,519.618,0.0023042,129.905,""
75255,26.5554,20.0005,0.0088706,553.372,0.00221765,138.343,""
78080.9,26.6805,19.9999,0.00858141,578.037,0.00214535,144.509,""
82638.7,26.6287,19.9997,0.00808405,616.016,0.00202101,154.004,""
85654.6,26.4077,19.9994,0.00774076,639.883,0.00193519,159.971,""
89400.2,26.8012,19.9998,0.00731546,668.081,0.00182887,167.02,""
93264.2,26.797,19.9998,0.00687714,695.5,0.00171928,173.875,""
96947.7,26.6899,20,0.00646527,720.071,0.00161632,180.018,""
100254,26.5637,20,0.0061034,740.844,0.00152585,185.211,""
103113,26.0739,19.9998,0.00579755,757.856,0.00144939,189.464,""
106335,25.4804,19.9997,0.0054639,775.994,0.00136597,193.999,""
109599,25.549,19.9999,0.00513914,793.294,0.00128479,198.324,""
112955,25.6067,20.0001,0.00482203,810.005,0.00120551,202.501,""
116032,25.3233,19.9999,0.00455076,824.421,0.00113769,206.105,""
119574,25.2113,19.9998,0.00425967,840.017,0.00106492,210.004,""
123596,25.2463,19.9994,0.00395001,856.517,0.000987503,214.129,""
127186,25.2819,20,0.00369535,870.236,0.000923839,217.559,""
130980,25.2482,19.9999,0.00345511,883.79,0.000863777,220.948,""
134237,25.1124,19.9994,0.00327697,894.743,0.000819243,223.686,""
137762,25.0623,19.9995,0.0031106,905.994,0.000777651,226.498,""
141386,25.0311,19.9999,0.00296544,916.998,0.000741361,229.249,""
145924,25.1455,20.0001,0.00281071,930.094,0.000702677,232.524,""
149977,25.1709,20.0001,0.00268989,941.237,0.000672473,235.309,""
154047,25.0556,20.0001,0.00258135,951.957,0.000645338,237.989,""
157941,25.0521,19.9999,0.00248756,961.825,0.000621891,240.456,""
161371,25.2766,19.9999,0.00241001,970.22,0.000602501,242.555,""
165768,25.2587,19.9999,0.0023197,980.617,0.000579924,245.154,""
169533,25.2576,19.9999,0.00224847,989.213,0.000562119,247.303,""
173553,25.2752,19.9996,0.00217898,998.113,0.000544745,249.528,""
177206,25.2749,19.9997,0.00211908,1005.96,0.000529771,251.49,""
181266,25.1799,20,0.00205753,1014.44,0.000514382,253.609,""
185680,25.1694,19.9996,0.00199656,1023.38,0.000499141,255.845,""
189514,25.3535,20,0.00194742,1030.94,0.000486856,257.735,""
193178,25.2843,20.0004,0.00190318,1037.99,0.000475796,259.498,""
197400,25.348,19.9998,0.00185766,1045.93,0.000464414,261.482,""
200659,26.1347,19.9996,0.00182387,1051.93,0.000455966,262.982,""
203155,25.6359,19.9993,0.00180048,1056.45,0.00045012,264.113,""
205970,25.6469,19.999,0.00177297,1061.48,0.000443242,265.37,""
208633,25.9513,19.9999,0.00175011,1066.17,0.000437528,266.543,""
211831,25.2997,19.9997,0.00172211,1071.72,0.000430529,267.931,""
215536,25.3256,19.9995,0.00169343,1078.05,0.000423359,269.512,""
219839,25.3061,20.0001,0.00166208,1085.27,0.00041552,271.316,""
222919,25.3045,19.9999,0.00163943,1090.35,0.000409858,272.587,""
227529,25.3094,20.0001,0.00160965,1097.84,0.000402411,274.459,""
231947,25.3156,19.9998,0.00158178,1104.89,0.000395446,276.222,""
235882,25.3797,19.9996,0.00155889,1111.07,0.000389723,277.767,""
241210,25.3948,19.9999,0.00153047,1119.3,0.000382617,279.824,""
244522,26.2634,19.9999,0.0015149,1124.34,0.000378724,281.085,""
248152,26.1986,19.9992,0.00149814,1129.81,0.000374535,282.452,""
252226,26.221,19.9996,0.00147886,1135.87,0.000369714,283.968,""
256537,26.2268,20.0002,0.00145912,1142.21,0.00036478,285.551,""
260211,26.2465,19.9987,0.00144234,1147.54,0.000360586,286.884,""
264129,26.3441,19.9996,0.00142643,1153.16,0.000356606,288.289,""
267994,26.3247,19.9997,0.00141141,1158.64,0.000352852,289.66,""
271432,25.7298,19.9997,0.0013976,1163.47,0.0003494,290.867,""
274431,25.501,19.9996,0.00138583,1167.64,0.000346458,291.91,""
278108,25.3069,19.9991,0.00137219,1172.71,0.000343047,293.177,""
282610,25.358,19.9995,0.00135617,1178.85,0.000339044,294.713,""
287085,25.4008,19.9999,0.00134122,1184.89,0.000335304,296.221,""
292010,25.3715,19.9994,0.00132464,1191.45,0.000331161,297.863,""
296156,25.4176,19.9998,0.00131142,1196.92,0.000327855,299.229,""
300409,25.4379,20,0.00129666,1202.46,0.000324165,300.616,""
304732,25.4129,19.9998,0.00128252,1208.04,0.000320629,302.01,""
308759,25.4025,19.9998,0.00126921,1213.18,0.000317303,303.294,""
313060,25.4407,20.0002,0.0012547,1218.61,0.000313674,304.651,""
316978,25.3721,20.0003,0.0012415,1223.5,0.000310376,305.874,""
320364,25.4647,20.0003,0.00123012,1227.68,0.00030753,306.92,""
324732,25.4635,19.9997,0.00121547,1233.02,0.000303868,308.255,""
329607,25.4025,19.9999,0.0011994,1238.91,0.000299851,309.726,""
334957,25.5155,20,0.00118176,1245.28,0.00029544,311.319,""
339530,25.4679,19.9997,0.00116595,1250.64,0.000291488,312.661,""
344254,25.5929,19.9998,0.00114995,1256.11,0.000287486,314.028,""
348353,25.5253,19.9998,0.00113592,1260.8,0.000283979,315.2,""
352129,25.6755,19.9999,0.00112323,1265.06,0.000280808,316.266,""
356028,25.5433,19.9999,0.00111011,1269.42,0.000277527,317.354,""
359688,25.6589,19.9999,0.00109756,1273.46,0.00027439,318.364,""
362775,25.7397,20,0.00108734,1276.83,0.000271835,319.207,""
366736,25.7034,19.9998,0.00107429,1281.11,0.000268573,320.277,""
371147,25.7092,19.9994,0.0010598,1285.82,0.00026495,321.454,""
376528,25.6067,19.9997,0.0010426,1291.47,0.000260649,322.868,""
380175,25.6313,19.9998,0.00103166,1295.25,0.000257916,323.814,""
384897,25.747,19.9993,0.0010156,1300.09,0.000253901,325.022,""
389393,25.7044,19.9998,0.00100071,1304.62,0.000250176,326.155,""
393862,25.672,19.9999,0.00098648,1309.06,0.00024662,327.265,""
399035,25.6924,19.9996,0.00097014,1314.12,0.000242535,328.53,""
405851,25.6481,19.9997,0.000948756,1320.66,0.000237189,330.165,""
410206,25.6913,19.9994,0.000935385,1324.76,0.000233846,331.191,""
413888,25.735,19.9997,0.000924433,1328.19,0.000231108,332.047,""
418962,25.592,19.9995,0.000908519,1332.84,0.00022713,333.209,""
423648,25.6318,20.0002,0.000894564,1337.06,0.000223641,334.265,""
427246,25.5778,20.0003,0.000883451,1340.26,0.000220863,335.065,""
431989,25.6738,20,0.000869186,1344.42,0.000217296,336.104,""
435773,25.521,19.9999,0.000858285,1347.69,0.000214571,336.921,""
439735,25.5507,20,0.000846166,1351.06,0.000211541,337.765,""
443366,25.6371,20.0001,0.000835632,1354.12,0.000208908,338.529,""
447305,25.6017,20,0.000824571,1357.38,0.000206143,339.346,""
451246,25.612,19.9998,0.000813868,1360.61,0.000203467,340.153,""
454579,25.6564,19.9999,0.000805015,1363.31,0.000201254,340.828,""
458604,25.6547,19.9999,0.000794736,1366.53,0.000198684,341.633,""
463450,25.6803,19.9996,0.00078274,1370.35,0.000195685,342.588,""
468493,25.5544,19.9998,0.000769916,1374.27,0.000192479,343.567,""
472643,25.6284,20.0001,0.00075995,1377.44,0.000189988,344.361,""
477386,25.6255,20.0001,0.00074912,1381.02,0.00018728,345.256,""
482875,25.6588,20,0.000735617,1385.1,0.000183904,346.274,""
487691,25.6301,19.9999,0.000723985,1388.61,0.000180996,347.153,""
491421,25.6754,19.9995,0.000715402,1391.3,0.000178851,347.825,""
495730,25.5619,19.9996,0.0007052,1394.36,0.0001763,348.59,""
499664,25.6726,19.9999,0.00069673,1397.12,0.000174183,349.279,""
503642,26.4922,20.0001,0.000687088,1399.87,0.000171772,349.967,""
507451,26.3932,19.9997,0.000679013,1402.47,0.000169753,350.618,""
511711,26.3502,20,0.000668755,1405.34,0.000167189,351.336,""
515717,26.4426,20.0005,0.000659756,1408,0.000164939,352.001,""
520074,26.441,20,0.000649602,1410.86,0.000162401,352.714,""
523920,26.3919,19.9997,0.000640853,1413.34,0.000160213,353.334,""
527451,26.428,20.0003,0.000633532,1415.59,0.000158383,353.897,""
530588,26.537,20,0.000626561,1417.56,0.00015664,354.391,""
535600,26.6206,19.9999,0.000616191,1420.68,0.000154048,355.169,""
539355,25.4231,19.9996,0.000608541,1422.98,0.000152135,355.744,""
543077,25.2893,19.9999,0.000601352,1425.23,0.000150338,356.307,""
547303,25.4558,20,0.000593421,1427.75,0.000148355,356.938,""
551492,25.4216,19.9999,0.000585982,1430.22,0.000146495,357.556,""
555645,25.0376,19.9998,0.000578211,1432.64,0.000144553,358.16,""
560814,25.0394,19.9998,0.000569318,1435.61,0.00014233,358.902,""
566349,24.9982,20,0.000559301,1438.73,0.000139825,359.682,""
570959,24.9695,20,0.000551269,1441.29,0.000137817,360.323,""
576539,24.9634,19.9998,0.000541094,1444.34,0.000135274,361.085,""
581028,24.9514,19.9994,0.000532912,1446.75,0.000133228,361.687,""
586061,25.8059,19.9995,0.000525081,1449.41,0.00013127,362.353,""
590201,25.8223,19.9999,0.00051743,1451.57,0.000129358,362.892,""
594088,25.8981,19.9998,0.000510719,1453.57,0.00012768,363.392,""
597687,25.927,19.9989,0.000504132,1455.39,0.000126033,363.849,""
601937,25.9163,19.9996,0.000496416,1457.52,0.000124104,364.38,""
602961,25.9682,19.9997,0.000494892,1458.03,0.000123723,364.507,""
602962,25.97,19.9997,NaN,NaN,NaN,NaN,"Ampoule removed"
602962,25.9721,19.9997,NaN,NaN,NaN,NaN,""