File: data/JAA_CAL347.csv
Summary
Name,"JAA_CAL347.rslt"
Start time,2023 Jun 06 - 12:09
End time,2023 Jun 13 - 12:49
Operator,"JAA"
Results file path,"C:\Users\ge65ley\Desktop\Calorimetry_Results\AXD\Results_files\JAA_CAL347.rslt"
General Experiment Info
Bath temperature,20Â°C
,Sample - 25336:3
Total mass,6g
Name,"JAA_CAL347"
,Component - OPC
Mass,4g
Name,"OPC"
ID,"Karlstadt CEM I 52.5N 12.10.21"

"Time","Temperature [AmbientT(Therm3T)]","Temperature [Temperature]","Heat flow [Signal]","Heat [Signal]","Normalized heat flow [Signal]","Normalized heat [Signal]","Time markers"
-4334.72,25.5956,20.0001,NaN,NaN,NaN,NaN,""
-4334.67,25.5957,20.0001,8.94008e-07,NaN,2.23502e-07,NaN,""
-4309.38,25.6919,20,9.27563e-07,NaN,2.31891e-07,NaN,""
-4262.86,25.6617,19.9999,9.89281e-07,NaN,2.4732e-07,NaN,""
-4225.28,25.6451,19.9998,8.62305e-07,NaN,2.15576e-07,NaN,""
-4164.04,25.6584,19.9997,4.71023e-07,NaN,1.17756e-07,NaN,""
-4156.59,25.6601,19.9996,5.16231e-07,NaN,1.29058e-07,NaN,""
-4124.29,25.6671,20.0003,7.1212e-07,NaN,1.7803e-07,NaN,""
-4100.39,25.6723,20.0001,7.34633e-07,NaN,1.83658e-07,NaN,""
-4077.86,25.6571,19.9999,6.97118e-07,NaN,1.7428e-07,NaN,""
-4071.17,25.6514,19.9999,6.85989e-07,NaN,1.71497e-07,NaN,""
-4065.2,25.6464,19.9998,5.39429e-07,NaN,1.34857e-07,NaN,""
-4059.24,25.6414,19.9998,3.92869e-07,NaN,9.82173e-08,NaN,""
-4025.27,25.6539,19.9997,3.0356e-07,NaN,7.589e-08,NaN,""
-4002.9,25.8853,19.9997,2.44764e-07,NaN,6.1191e-08,NaN,""
-3964.35,25.7213,19.9996,1.43399e-07,NaN,3.58499e-08,NaN,""
-3944.14,25.7297,19.9998,9.02653e-08,NaN,2.25663e-08,NaN,""
-3917.31,25.7814,20,-1.95762e-07,NaN,-4.89405e-08,NaN,""
-3906.17,25.8029,20.0001,-3.41459e-08,NaN,-8.53648e-09,NaN,""
-3892.22,25.8298,20.0001,-1.14401e-07,NaN,-2.86002e-08,NaN,""
-3878.26,25.8153,20.0001,-1.94656e-07,NaN,-4.8664e-08,NaN,""
-3840.67,25.7322,20.0001,-3.14731e-07,NaN,-7.86828e-08,NaN,""
-3835.05,25.7292,20.0001,-1.52246e-07,NaN,-3.80614e-08,NaN,""
-3829.44,25.7315,20,1.02398e-08,NaN,2.55994e-09,NaN,""
-3796.71,25.7445,20,-5.72789e-08,NaN,-1.43197e-08,NaN,""
-3772.97,25.7539,20,-9.89217e-08,NaN,-2.47304e-08,NaN,""
-3755.4,25.7786,20,-3.90764e-08,NaN,-9.7691e-09,NaN,""
-3742.23,25.8141,20.0001,1.31138e-07,NaN,3.27845e-08,NaN,""
-3728.92,25.85,20.0001,-1.27786e-08,NaN,-3.19464e-09,NaN,""
-3713.33,25.892,20.0001,9.06862e-08,NaN,2.26716e-08,NaN,""
-3706.44,25.8893,20.0001,-6.50415e-09,NaN,-1.62604e-09,NaN,""
-3699.55,25.8814,20.0002,-1.03695e-07,NaN,-2.59236e-08,NaN,""
-3673.98,25.8519,20.0002,5.34282e-08,NaN,1.3357e-08,NaN,""
-3660.49,25.8363,20.0003,-9.87488e-08,NaN,-2.46872e-08,NaN,""
-3648.43,25.8224,20.0002,-2.06369e-07,NaN,-5.15922e-08,NaN,""
-3625.8,25.7963,20.0001,-1.87791e-08,NaN,-4.69478e-09,NaN,""
-3612.62,25.7811,20.0001,-2.39629e-07,NaN,-5.99073e-08,NaN,""
-3602.02,25.7689,20.0001,-2.55794e-07,NaN,-6.39486e-08,NaN,""
-3591.91,25.7651,20,-2.66889e-07,NaN,-6.67223e-08,NaN,""
-3544.05,25.7471,19.9999,8.82985e-08,NaN,2.20746e-08,NaN,""
-3504.88,25.7325,19.9998,-2.87961e-07,NaN,-7.19903e-08,NaN,""
-3463.89,25.7171,19.9996,-2.05846e-08,NaN,-5.14615e-09,NaN,""
-3443.17,25.7094,19.9996,-2.69559e-07,NaN,-6.73898e-08,NaN,""
-3442.48,25.7091,19.9996,-2.6428e-07,NaN,-6.607e-08,NaN,""
-3430.98,25.7048,19.9997,-1.76317e-07,NaN,-4.40791e-08,NaN,""
-3408.41,25.6963,20,-4.63158e-07,NaN,-1.1579e-07,NaN,""
-3402.23,25.694,20,-3.87843e-07,NaN,-9.69608e-08,NaN,""
-3396.05,25.6917,20,-3.12528e-07,NaN,-7.81321e-08,NaN,""
-3364.47,25.6799,19.9999,-4.98508e-07,NaN,-1.24627e-07,NaN,""
-3340.71,25.671,19.9998,-8.81358e-07,NaN,-2.20339e-07,NaN,""
-3330.35,25.6671,19.9998,-8.71571e-07,NaN,-2.17893e-07,NaN,""
-3321.36,25.7198,19.9998,-8.63087e-07,NaN,-2.15772e-07,NaN,""
-3312.37,25.7725,19.9997,-8.54603e-07,NaN,-2.13651e-07,NaN,""
-3292.3,25.6094,19.9996,-8.35658e-07,NaN,-2.08915e-07,NaN,""
-3281.99,25.6622,19.9996,-6.43212e-07,NaN,-1.60803e-07,NaN,""
-3263.86,25.7685,19.9995,-3.0468e-07,NaN,-7.61701e-08,NaN,""
-3250.71,25.7712,19.9994,-2.85917e-07,NaN,-7.14793e-08,NaN,""
-3237.56,25.7734,19.9995,-2.67154e-07,NaN,-6.67885e-08,NaN,""
-3193.16,25.7812,20,-8.92118e-08,NaN,-2.23029e-08,NaN,""
-3190.79,25.7816,20,-7.97278e-08,NaN,-1.99319e-08,NaN,""
-3185.09,25.7826,20,-1.617e-07,NaN,-4.0425e-08,NaN,""
-3179.43,25.7792,20,-2.41908e-07,NaN,-6.0477e-08,NaN,""
-3143.91,25.7578,20,-4.74829e-08,NaN,-1.18707e-08,NaN,""
-3121.22,25.7441,20,-3.05387e-07,NaN,-7.63467e-08,NaN,""
-3104.35,25.7339,20,2.87918e-08,NaN,7.19794e-09,NaN,""
-3094.42,25.7279,20,-2.20112e-07,NaN,-5.50279e-08,NaN,""
-3079.24,25.7188,20,6.70535e-08,NaN,1.67634e-08,NaN,""
-3062.43,25.7086,20,-7.34512e-08,NaN,-1.83628e-08,NaN,""
-3051.08,25.7018,20,-2.66696e-08,NaN,-6.66739e-09,NaN,""
-3043.47,25.6972,20,1.06837e-07,NaN,2.67093e-08,NaN,""
-3034.19,25.6964,20,4.51909e-08,NaN,1.12977e-08,NaN,""
-3024.9,25.6966,20,-1.64555e-08,NaN,-4.11387e-09,NaN,""
-2990.77,25.6971,20,2.77487e-07,NaN,6.93718e-08,NaN,""
-2957.57,25.6976,20,-1.29596e-07,NaN,-3.2399e-08,NaN,""
-2943.67,25.6978,20,3.07509e-08,NaN,7.68773e-09,NaN,""
-2906.79,25.6984,20,-5.23019e-09,NaN,-1.30755e-09,NaN,""
-2901.7,25.6985,20,3.0146e-08,NaN,7.53651e-09,NaN,""
-2890.32,25.6987,19.9999,1.09191e-07,NaN,2.72977e-08,NaN,""
-2880.12,25.6884,19.9997,4.77841e-08,NaN,1.1946e-08,NaN,""
-2869.74,25.6779,19.9996,-9.89497e-08,NaN,-2.47374e-08,NaN,""
-2853.01,25.661,19.9994,6.90142e-09,NaN,1.72536e-09,NaN,""
-2841.81,25.6498,19.9994,2.04446e-08,NaN,5.11114e-09,NaN,""
-2830.81,25.6387,19.9995,-2.40153e-08,NaN,-6.00383e-09,NaN,""
-2820.19,25.6734,19.9995,-1.40994e-08,NaN,-3.52484e-09,NaN,""
-2805.88,25.7202,19.9995,5.60498e-08,NaN,1.40124e-08,NaN,""
-2778.94,25.8084,19.9997,-4.99241e-07,NaN,-1.2481e-07,NaN,""
-2770.56,25.7994,19.9997,-4.46845e-07,NaN,-1.11711e-07,NaN,""
-2762.17,25.7707,19.9997,-3.94449e-07,NaN,-9.86122e-08,NaN,""
-2729.91,25.6605,19.9998,-7.01405e-07,NaN,-1.75351e-07,NaN,""
-2702.05,25.681,19.9998,-5.74996e-07,NaN,-1.43749e-07,NaN,""
-2674.96,25.76,19.9997,-4.52068e-07,NaN,-1.13017e-07,NaN,""
-2637.99,25.7742,19.9995,-2.19873e-07,NaN,-5.49683e-08,NaN,""
-2599.01,25.7891,19.9997,9.67372e-08,NaN,2.41843e-08,NaN,""
-2560.03,25.804,19.9999,1.98236e-07,NaN,4.95589e-08,NaN,""
-2556.25,25.8055,19.9999,1.8376e-07,NaN,4.594e-08,NaN,""
-2534.67,25.746,20,1.00962e-07,NaN,2.52405e-08,NaN,""
-2508.99,25.6752,19.9999,NaN,NaN,NaN,NaN,""
-2461,25.786,19.9996,NaN,NaN,NaN,NaN,""
-2429.36,25.7445,19.9998,NaN,NaN,NaN,NaN,""
-2415.78,25.694,19.9999,NaN,NaN,NaN,NaN,""
-2378.26,25.6965,20,NaN,NaN,NaN,NaN,""
-2333.42,25.6995,20,NaN,NaN,NaN,NaN,""
-2277.78,25.7736,19.9999,NaN,NaN,NaN,NaN,""
-2252.19,25.7473,19.9999,NaN,NaN,NaN,NaN,""
-2226.59,25.721,19.9998,NaN,NaN,NaN,NaN,""
-2208.72,25.8817,19.9998,NaN,NaN,NaN,NaN,""
-2183.33,25.7313,19.9997,NaN,NaN,NaN,NaN,""
-2144.3,25.7274,19.9999,NaN,NaN,NaN,NaN,""
-2115.23,25.7244,20.0001,NaN,NaN,NaN,NaN,""
-1948,25.7074,19.9998,NaN,NaN,NaN,NaN,""
-1871.32,25.7176,19.9999,NaN,NaN,NaN,NaN,""
-1794.64,25.731,20,NaN,NaN,NaN,NaN,""
-1767.19,25.7358,20.0005,NaN,NaN,NaN,NaN,""
-1737.17,25.7411,19.9998,NaN,NaN,NaN,NaN,""
-1667.6,25.7532,20,NaN,NaN,NaN,NaN,""
-1638.56,25.7402,19.9999,NaN,NaN,NaN,NaN,""
-1609.52,25.7249,19.9998,NaN,NaN,NaN,NaN,""
-1561.72,25.6995,20.0003,NaN,NaN,NaN,NaN,""
-1512.44,25.6734,19.9998,NaN,NaN,NaN,NaN,""
-1458.06,25.7184,19.9998,NaN,NaN,NaN,NaN,""
-1423.63,25.7619,19.9998,NaN,NaN,NaN,NaN,""
-1373.49,25.735,19.9998,NaN,NaN,NaN,NaN,""
-1323.34,25.7126,19.9998,NaN,NaN,NaN,NaN,""
-1277.89,25.7547,19.9997,NaN,NaN,NaN,NaN,""
-1253.65,25.7493,19.9999,NaN,NaN,NaN,NaN,""
-1229.4,25.6446,20.0001,NaN,NaN,NaN,NaN,""
-1213.24,25.6639,20,NaN,NaN,NaN,NaN,""
-1193.87,25.709,19.9998,NaN,NaN,NaN,NaN,""
-1168.38,25.6974,19.9997,NaN,NaN,NaN,NaN,""
-1119.92,25.6751,19.9997,NaN,NaN,NaN,NaN,""
-1034.14,25.7287,19.9998,NaN,NaN,NaN,NaN,""
-933.492,25.7916,20,NaN,NaN,NaN,NaN,""
-868.02,25.7539,20,NaN,NaN,NaN,NaN,""
-830.329,25.8287,20.0001,NaN,NaN,NaN,NaN,""
-797.751,25.8514,20,NaN,NaN,NaN,NaN,""
-770.869,25.6839,19.9999,NaN,NaN,NaN,NaN,""
-712.762,25.799,19.9998,NaN,NaN,NaN,NaN,""
-669.751,25.7837,19.9997,NaN,NaN,NaN,NaN,""
-626.74,25.7685,20,NaN,NaN,NaN,NaN,""
-595.404,25.7497,20,NaN,NaN,NaN,NaN,""
-533.216,25.7124,19.9998,NaN,NaN,NaN,NaN,""
-511.004,25.7291,20.0002,NaN,NaN,NaN,NaN,""
-488.793,25.7492,20.0006,NaN,NaN,NaN,NaN,""
-465.946,25.7698,20.0008,NaN,NaN,NaN,NaN,""
-443.336,25.6902,20.0011,NaN,NaN,NaN,NaN,""
-429.524,25.7067,20.0008,NaN,NaN,NaN,NaN,""
-410.591,25.7802,20.0004,NaN,NaN,NaN,NaN,""
-394.006,25.7884,20.0005,NaN,NaN,NaN,NaN,""
-367.451,25.7577,20.0008,NaN,NaN,NaN,NaN,""
-335.832,25.7293,20.0007,NaN,NaN,NaN,NaN,""
-287.25,25.738,20.0006,NaN,NaN,NaN,NaN,""
-242.534,25.7306,20.0004,NaN,NaN,NaN,NaN,""
-191.446,25.6605,20.0001,NaN,NaN,NaN,NaN,""
-177.747,25.6489,20.0003,NaN,NaN,NaN,NaN,""
-164.048,25.668,20.0006,NaN,NaN,NaN,NaN,""
-133.892,25.7101,19.9999,NaN,NaN,NaN,NaN,""
-116.865,25.7116,19.9999,NaN,NaN,NaN,NaN,""
-84.9968,25.7144,20.0002,NaN,NaN,NaN,NaN,""
-44.0436,25.718,19.9998,NaN,NaN,NaN,NaN,""
-35.8132,25.7187,19.9999,NaN,NaN,NaN,NaN,""
-14.2155,25.8359,19.9999,NaN,NaN,NaN,NaN,""
-2.77801,25.5846,19.9999,NaN,NaN,NaN,NaN,""
23.6185,25.644,20,NaN,NaN,NaN,NaN,""
46.2469,25.8172,20,NaN,NaN,NaN,NaN,""
68.8753,25.9904,19.9999,NaN,NaN,NaN,NaN,""
93.2054,25.8456,19.9998,NaN,NaN,NaN,NaN,""
113.495,25.767,20,NaN,NaN,NaN,NaN,""
143.804,25.9029,20.0003,NaN,NaN,NaN,NaN,""
169.907,25.8538,20.0002,NaN,NaN,NaN,NaN,""
203.32,25.7909,20,NaN,NaN,NaN,NaN,""
239.244,25.6626,20.0001,NaN,NaN,NaN,NaN,""
257.521,25.6251,20.0001,NaN,NaN,NaN,NaN,""
283.034,25.7222,20.0002,NaN,NaN,NaN,NaN,""
298.522,26.033,20.0003,NaN,NaN,NaN,NaN,""
311.394,25.9636,20.0003,NaN,NaN,NaN,NaN,""
329.187,25.8677,19.9998,NaN,NaN,NaN,NaN,""
355.08,25.7598,19.9999,NaN,NaN,NaN,NaN,""
391.25,25.8045,20.0001,NaN,NaN,NaN,NaN,""
421.106,25.8217,20.0001,NaN,NaN,NaN,NaN,""
569.802,25.7406,19.9999,NaN,NaN,NaN,NaN,""
662.625,25.7544,19.9999,NaN,NaN,NaN,NaN,""
671.892,25.7619,19.9998,NaN,NaN,NaN,NaN,""
729.972,25.8087,20,NaN,NaN,NaN,NaN,""
748.05,25.6628,20.0001,NaN,NaN,NaN,NaN,""
775.128,25.7534,20.0001,NaN,NaN,NaN,NaN,""
802.206,25.8439,19.9998,NaN,NaN,NaN,NaN,""
827.762,25.8489,19.9996,NaN,NaN,NaN,NaN,""
887.33,25.8606,19.9996,NaN,NaN,NaN,NaN,""
921.694,25.8151,19.9997,NaN,NaN,NaN,NaN,""
956.058,25.7696,19.9998,NaN,NaN,NaN,NaN,""
1012.85,25.7615,20.0001,NaN,NaN,NaN,NaN,""
1064.16,25.7542,19.9996,NaN,NaN,NaN,NaN,""
1094.34,25.7637,19.9994,NaN,NaN,NaN,NaN,""
1118.16,25.7712,19.9998,NaN,NaN,NaN,NaN,""
1124.52,25.7733,19.9998,NaN,NaN,NaN,NaN,""
1141.63,25.9346,19.9998,NaN,NaN,NaN,NaN,""
1150.22,25.6496,19.9998,NaN,NaN,NaN,NaN,""
1180.14,25.851,19.9999,NaN,NaN,NaN,NaN,""
1200.61,26.1499,20,NaN,NaN,NaN,NaN,""
1211.8,25.9087,20,NaN,NaN,NaN,NaN,""
1252.94,25.9052,20,NaN,NaN,NaN,NaN,""
1294.08,25.9018,19.9998,NaN,NaN,NaN,NaN,""
1294.37,25.9037,19.9998,NaN,NaN,NaN,NaN,"Reaction start. Measuring position. Signal correct"
1295.33,25.91,19.9998,5.84898e-06,5.50633e-06,1.46224e-06,1.37658e-06,""
1675.33,25.9446,20.0002,0.234179,11.4391,0.0585448,2.85978,""
1935.75,25.8292,19.9999,0.172103,70.371,0.0430257,17.5927,""
2362.5,25.7973,19.9996,0.0541666,113.948,0.0135416,28.487,""
3116.3,25.7851,20,0.0102657,132.655,0.00256643,33.1637,""
4709.08,25.7924,19.9998,0.00333476,140.933,0.000833689,35.2334,""
7893.6,25.9345,19.9999,0.00220691,149.137,0.000551728,37.2843,""
11450.4,25.9089,19.9997,0.00217825,156.923,0.000544562,39.2307,""
14746.2,25.9463,20.0001,0.00231392,164.264,0.000578479,41.0661,""
17346.3,26.0152,19.9998,0.0025913,170.604,0.000647826,42.6509,""
20064.9,26.0992,19.9998,0.00302269,178.205,0.000755671,44.5513,""
23094,25.8148,20.0001,0.00367818,188.3,0.000919544,47.075,""
26506,25.7457,20,0.00465682,202.454,0.0011642,50.6134,""
30796.8,25.6947,20,0.00614386,225.554,0.00153597,56.3886,""
34599.8,25.6272,19.9994,0.00754907,251.576,0.00188727,62.8939,""
38403.6,25.6034,19.9997,0.00923575,283.601,0.00230894,70.9003,""
41806.4,25.6057,19.9995,0.0102369,316.936,0.00255923,79.234,""
45277.8,25.5372,20,0.010651,353.34,0.00266276,88.335,""
48896.3,25.5909,19.9999,0.0106831,392.01,0.00267078,98.0026,""
52296.9,25.5085,19.9998,0.0104106,427.97,0.00260264,106.992,""
55793.8,25.4867,19.9998,0.0100135,463.669,0.00250337,115.917,""
59507.6,25.4914,19.9999,0.00964326,500.163,0.00241081,125.041,""
63598,25.4815,19.9996,0.00922781,538.759,0.00230695,134.69,""
67637.2,25.5065,19.9998,0.00883007,575.227,0.00220752,143.807,""
71723.2,25.5567,19.9995,0.00843425,610.498,0.00210856,152.625,""
75302.5,26.5173,20.0001,0.00808306,640.061,0.00202077,160.015,""
78353.3,26.6463,19.9996,0.00777566,664.252,0.00194391,166.063,""
81905.9,26.6796,20,0.00740817,691.228,0.00185204,172.807,""
85242,26.6345,19.9996,0.00706025,715.361,0.00176506,178.84,""
88717.2,26.7934,20.0001,0.00669813,739.266,0.00167453,184.817,""
92347.6,26.7887,20.0002,0.00632353,762.9,0.00158088,190.725,""
96185.3,26.7413,20.0003,0.00593766,786.424,0.00148442,196.606,""
99838.5,26.5282,19.9995,0.00557633,807.454,0.00139408,201.864,""
102940,25.9661,19.9998,0.00527424,824.281,0.00131856,206.07,""
106336,25.4768,19.9997,0.00495071,841.64,0.00123768,210.41,""
109848,25.401,19.9999,0.00462188,858.448,0.00115547,214.612,""
113444,25.5111,20.0001,0.00429525,874.477,0.00107381,218.619,""
116490,25.2963,20,0.0040384,887.159,0.0010096,221.79,""
119577,25.2113,19.9998,0.00380865,899.265,0.000952163,224.816,""
123763,25.2592,19.999,0.00355397,914.651,0.000888494,228.663,""
127266,25.2506,20,0.00337998,926.789,0.000844994,231.697,""
131526,25.1422,19.9997,0.00320061,940.795,0.000800153,235.199,""
134992,25.0952,19.9997,0.00306876,951.656,0.000767191,237.914,""
139359,25.0104,20.0001,0.00292049,964.727,0.000730123,241.182,""
142979,25.0972,19.9997,0.00281131,975.099,0.000702829,243.775,""
147105,25.0771,19.9997,0.00269559,986.455,0.000673898,246.614,""
150905,25.1192,19.9998,0.00259799,996.512,0.000649498,249.128,""
154903,25.043,19.9998,0.00250366,1006.71,0.000625915,251.678,""
158637,25.219,19.9998,0.00242276,1015.91,0.00060569,253.977,""
162352,25.1792,19.9997,0.00234866,1024.77,0.000587166,256.192,""
166101,25.1906,19.9998,0.00227906,1033.44,0.000569764,258.36,""
169436,25.2032,19.9997,0.00222289,1040.94,0.000555722,260.236,""
172724,25.3199,20.0001,0.00217025,1048.16,0.000542563,262.041,""
177039,25.3509,20.0001,0.00210593,1057.39,0.000526484,264.348,""
180786,25.1982,19.9999,0.00205413,1065.18,0.000513531,266.296,""
184235,25.1785,19.9985,0.00200891,1072.19,0.000502228,268.047,""
188366,25.2311,20.0001,0.00195834,1080.38,0.000489585,270.095,""
192213,25.2601,20,0.00191563,1087.83,0.000478908,271.958,""
195694,25.3251,19.9998,0.00188019,1094.44,0.000470048,273.609,""
199746,25.9968,20.0005,0.00183992,1101.97,0.000459981,275.493,""
202436,25.9471,19.9995,0.00181432,1106.89,0.00045358,276.722,""
205303,25.449,20,0.00178801,1112.05,0.000447002,278.012,""
207670,25.62,19.9994,0.00176927,1116.26,0.000442318,279.065,""
210759,25.4691,19.9998,0.00174528,1121.69,0.000436321,280.422,""
214086,25.2826,20,0.00172041,1127.45,0.000430102,281.863,""
218153,25.3083,19.9999,0.00169058,1134.39,0.000422646,283.597,""
221986,25.3456,19.9999,0.00166456,1140.82,0.000416139,285.204,""
226409,25.2918,19.9999,0.00163631,1148.11,0.000409077,287.029,""
230764,25.2727,20,0.0016105,1155.18,0.000402625,288.796,""
235228,25.3255,19.9998,0.00158519,1162.31,0.000396297,290.579,""
239710,25.3859,19.9998,0.00156042,1169.36,0.000390105,292.341,""
244074,26.1407,19.9998,0.00153724,1176.12,0.000384311,294.031,""
247758,26.2034,19.9999,0.00151793,1181.75,0.000379483,295.438,""
251642,26.2284,19.9998,0.00149929,1187.61,0.000374824,296.902,""
255981,26.1713,20.0001,0.00147908,1194.07,0.000369771,298.517,""
260086,26.3242,19.9989,0.00146132,1200.1,0.00036533,300.026,""
263622,26.2188,20.0001,0.00144581,1205.24,0.000361452,301.311,""
267315,26.2815,20.0005,0.00142795,1210.55,0.000356987,302.637,""
271165,25.7713,19.9997,0.00141006,1216.01,0.000352515,304.003,""
274242,25.4612,19.9997,0.00139586,1220.33,0.000348965,305.082,""
277726,25.3626,20,0.00138014,1225.17,0.000345036,306.291,""
281394,25.3376,19.9997,0.00136314,1230.2,0.000340785,307.549,""
285404,25.3981,19.9998,0.00134485,1235.63,0.000336213,308.906,""
290287,25.4062,20,0.00132253,1242.14,0.000330632,310.534,""
293878,25.3907,19.9999,0.00130661,1246.86,0.000326652,311.715,""
297797,25.4145,20,0.00128918,1251.94,0.000322296,312.986,""
302266,25.3715,19.9998,0.00127058,1257.66,0.000317646,314.416,""
306241,25.4445,20.0004,0.00125365,1262.68,0.000313413,315.67,""
310690,25.3932,20,0.00123458,1268.22,0.000308644,317.054,""
315130,25.4407,19.9997,0.00121633,1273.66,0.000304084,318.414,""
318595,25.435,19.9996,0.00120181,1277.85,0.000300454,319.462,""
322621,25.4576,19.9998,0.00118494,1282.65,0.000296235,320.663,""
326825,25.4995,19.9999,0.00116718,1287.6,0.000291796,321.899,""
331337,25.4641,19.9999,0.00114836,1292.82,0.000287091,323.205,""
336628,25.535,20,0.00112699,1298.84,0.000281746,324.71,""
341106,25.5301,19.9999,0.00111004,1303.85,0.000277509,325.962,""
345272,25.5373,19.9997,0.00109327,1308.44,0.000273318,327.11,""
349930,25.514,19.9996,0.00107463,1313.49,0.000268657,328.372,""
354161,25.6276,19.9999,0.00105809,1318,0.000264524,329.5,""
358355,25.5721,19.9999,0.00104213,1322.4,0.000260531,330.601,""
361881,25.6087,19.9997,0.00102874,1326.06,0.000257185,331.514,""
365657,25.5754,19.9994,0.00101443,1329.91,0.000253608,332.478,""
369502,25.6968,20.0001,0.000999888,1333.79,0.000249972,333.446,""
373880,25.6869,19.9999,0.000982705,1338.13,0.000245676,334.532,""
378022,25.6222,19.9996,0.000967233,1342.17,0.000241808,335.542,""
381663,25.5911,19.9998,0.000954996,1345.67,0.000238749,336.416,""
385814,25.7505,19.9995,0.000940405,1349.6,0.000235101,337.399,""
390090,25.7258,20,0.000925808,1353.59,0.000231452,338.397,""
394109,25.712,20,0.000911837,1357.28,0.000227959,339.32,""
399188,25.6737,19.9999,0.000894826,1361.87,0.000223707,340.468,""
404758,25.6469,19.9999,0.00087661,1366.8,0.000219153,341.701,""
410084,25.6919,19.9997,0.000858954,1371.43,0.000214738,342.856,""
414479,25.6778,20,0.00084493,1375.17,0.000211233,343.793,""
418953,25.5939,19.9995,0.000831211,1378.92,0.000207803,344.73,""
423362,25.5887,19.9997,0.000818201,1382.56,0.00020455,345.639,""
426916,25.5304,19.9996,0.000807747,1385.44,0.000201937,346.361,""
431647,25.5829,20.0001,0.000793404,1389.23,0.000198351,347.308,""
435651,25.5772,19.9997,0.000782054,1392.39,0.000195513,348.096,""
439944,25.5545,20.0003,0.000770051,1395.72,0.000192513,348.929,""
443746,25.5803,19.9998,0.000759949,1398.63,0.000189987,349.656,""
447653,25.6203,19.9999,0.000747862,1401.57,0.000186966,350.392,""
451365,25.6809,19.9998,0.000737357,1404.33,0.000184339,351.082,""
454720,25.6655,19.9995,0.000728069,1406.78,0.000182017,351.696,""
459286,25.6795,20,0.000716058,1410.08,0.000179015,352.521,""
463959,25.5881,20.0001,0.000703643,1413.4,0.000175911,353.349,""
468788,25.5545,19.9998,0.000690799,1416.76,0.0001727,354.191,""
473070,25.6051,20.0001,0.000679846,1419.7,0.000169962,354.925,""
478175,25.6572,19.9995,0.000667434,1423.14,0.000166858,355.784,""
482953,25.6354,19.9997,0.000656395,1426.3,0.000164099,356.575,""
487689,25.6271,19.9999,0.000645982,1429.38,0.000161495,357.346,""
491608,25.6418,20.0007,0.000637504,1431.9,0.000159376,357.975,""
495933,25.5645,19.9997,0.000627179,1434.63,0.000156795,358.658,""
501011,25.6505,20.0001,0.000616495,1437.79,0.000154124,359.448,""
504655,26.568,19.9997,0.000609242,1440.02,0.000152311,360.006,""
508795,26.3936,19.9999,0.000600717,1442.53,0.000150179,360.632,""
512943,26.4266,19.9997,0.000592437,1445,0.000148109,361.251,""
516852,26.0771,19.9998,0.00058498,1447.3,0.000146245,361.826,""
521844,26.3765,20.0003,0.00057447,1450.2,0.000143618,362.55,""
525733,26.4143,20.0004,0.000567193,1452.42,0.000141798,363.104,""
528748,26.5982,19.9998,0.000560857,1454.12,0.000140214,363.53,""
533094,26.5687,19.9997,0.000552004,1456.54,0.000138001,364.134,""
537450,25.552,19.9994,0.000543165,1458.92,0.000135791,364.73,""
540981,25.4981,19.9997,0.00053523,1460.83,0.000133808,365.206,""
545360,25.2109,19.9991,0.000526753,1463.15,0.000131688,365.788,""
549749,25.4053,19.9994,0.000518594,1465.45,0.000129649,366.361,""
553450,25.2457,19.9999,0.000511878,1467.35,0.000127969,366.838,""
558303,25.0581,19.9998,0.000503437,1469.82,0.000125859,367.454,""
563826,24.9643,19.9998,0.000494097,1472.57,0.000123524,368.143,""
569130,24.9463,19.9999,0.000485299,1475.17,0.000121325,368.792,""
574944,24.9322,19.9995,0.000476379,1477.96,0.000119095,369.491,""
580281,24.9246,19.9997,0.000467917,1480.48,0.000116979,370.121,""
584834,25.6042,20.0001,0.000460379,1482.6,0.000115095,370.649,""
588980,25.6063,19.9998,0.000454348,1484.49,0.000113587,371.123,""
592739,25.8182,20.0002,0.000448708,1486.19,0.000112177,371.547,""
596316,25.9878,19.9998,0.000443171,1487.78,0.000110793,371.946,""
600734,25.9301,19.9998,0.000436367,1489.73,0.000109092,372.432,""
602893,25.8844,19.9999,0.00043301,1490.67,0.000108252,372.666,""
602894,25.8856,19.9999,NaN,NaN,NaN,NaN,"Ampoule removed"
602894,25.8873,19.9999,NaN,NaN,NaN,NaN,""