File: data/JAA_CAL349.csv
Summary
Name,"JAA_CAL349.rslt"
Start time,2023 Jun 06 - 12:14
End time,2023 Jun 13 - 12:52
Operator,"JAA"
Results file path,"C:\Users\ge65ley\Desktop\Calorimetry_Results\AXD\Results_files\JAA_CAL349.rslt"
General Experiment Info
Bath temperature,20Â°C
,Sample - 25336:5
Total mass,6g
Name,"JAA_CAL349"
,Component - OPC
Mass,4g
Name,"OPC"
ID,"Karlstadt CEM I 52.5N 12.10.21"

"Time","Temperature [AmbientT(Therm3T)]","Temperature [Temperature]","Heat flow [Signal]","Heat [Signal]","Normalized heat flow [Signal]","Normalized heat [Signal]","Time markers"
-4046.07,25.6019,19.9997,NaN,NaN,NaN,NaN,""
-4046.07,25.6019,19.9997,4.49321e-07,NaN,1.1233e-07,NaN,""
-4028.58,25.6349,19.9997,-1.34394e-07,NaN,-3.35985e-08,NaN,""
-4020.02,25.7687,19.9998,-3.30607e-07,NaN,-8.26518e-08,NaN,""
-4011.45,25.9025,19.9998,-4.76864e-07,NaN,-1.19216e-07,NaN,""
-4000.15,25.8017,19.9998,-6.67206e-07,NaN,-1.66801e-07,NaN,""
-3988.84,25.7009,19.9998,-1.93044e-07,NaN,-4.82611e-08,NaN,""
-3978.55,25.7126,19.9998,1.45421e-07,NaN,3.63553e-08,NaN,""
-3966.38,25.7265,19.9998,-4.12945e-07,NaN,-1.03236e-07,NaN,""
-3940.48,25.7561,19.9999,3.23659e-07,NaN,8.09146e-08,NaN,""
-3925.26,25.7735,19.9999,3.35335e-07,NaN,8.38337e-08,NaN,""
-3906.54,25.7703,19.9999,1.29055e-07,NaN,3.22636e-08,NaN,""
-3887.83,25.7654,19.9999,6.22006e-08,NaN,1.55502e-08,NaN,""
-3840.29,25.7527,20,1.59212e-07,NaN,3.9803e-08,NaN,""
-3812.57,25.7453,20,-5.3427e-07,NaN,-1.33568e-07,NaN,""
-3802.23,25.7426,20,6.14158e-07,NaN,1.5354e-07,NaN,""
-3789.58,25.7438,20.0001,4.58569e-07,NaN,1.14642e-07,NaN,""
-3776.93,25.7687,20.0001,3.0298e-07,NaN,7.57451e-08,NaN,""
-3715.28,25.89,20.0001,2.02177e-07,NaN,5.05442e-08,NaN,""
-3690.66,25.817,20.0002,1.61921e-07,NaN,4.04803e-08,NaN,""
-3669.74,25.771,20.0002,-1.39083e-08,NaN,-3.47707e-09,NaN,""
-3626.69,25.8289,20.0002,-3.75818e-07,NaN,-9.39545e-08,NaN,""
-3616.93,25.821,20.0003,-3.20604e-07,NaN,-8.01509e-08,NaN,""
-3530,25.7504,19.9999,3.27268e-07,NaN,8.1817e-08,NaN,""
-3472.31,25.7043,19.9997,3.36624e-08,NaN,8.41561e-09,NaN,""
-3414.61,25.6964,19.9998,-2.59943e-07,NaN,-6.49858e-08,NaN,""
-3350.63,25.6877,19.9998,-3.77164e-07,NaN,-9.42909e-08,NaN,""
-3341.9,25.6865,19.9998,-3.93156e-07,NaN,-9.82891e-08,NaN,""
-3324.42,25.6841,19.9998,-8.63657e-07,NaN,-2.15914e-07,NaN,""
-3259.48,25.7408,19.9997,-1.75431e-07,NaN,-4.38579e-08,NaN,""
-3211.94,25.8026,19.9998,3.28409e-07,NaN,8.21022e-08,NaN,""
-3194.35,25.7941,20.0001,5.14813e-07,NaN,1.28703e-07,NaN,""
-3193.35,25.7934,20.0001,5.255e-07,NaN,1.31375e-07,NaN,""
-3175.76,25.7811,20.0002,1.98018e-07,NaN,4.95046e-08,NaN,""
-3144.52,25.7592,19.9999,-3.83542e-07,NaN,-9.58855e-08,NaN,""
-3127.49,25.7472,20.0002,-1.18114e-07,NaN,-2.95286e-08,NaN,""
-3110.87,25.7356,20.0005,7.03618e-07,NaN,1.75904e-07,NaN,""
-3094.57,25.7242,20.0003,4.17072e-07,NaN,1.04268e-07,NaN,""
-3078.27,25.7127,20.0002,1.30525e-07,NaN,3.26314e-08,NaN,""
-3055.22,25.6966,20,-7.36963e-08,NaN,-1.84241e-08,NaN,""
-3034.9,25.6929,20.0001,-1.42914e-07,NaN,-3.57286e-08,NaN,""
-3014.21,25.6945,20.0003,5.13906e-07,NaN,1.28477e-07,NaN,""
-3003.29,25.6953,20.0002,2.11457e-07,NaN,5.28643e-08,NaN,""
-2992.37,25.6961,20.0001,-9.09916e-08,NaN,-2.27479e-08,NaN,""
-2974.21,25.6974,19.9998,4.10357e-07,NaN,1.02589e-07,NaN,""
-2965.8,25.6981,19.9998,1.25678e-07,NaN,3.14196e-08,NaN,""
-2957.4,25.6987,19.9998,-1.59e-07,NaN,-3.97499e-08,NaN,""
-2939.29,25.7,19.9999,7.21647e-07,NaN,1.80412e-07,NaN,""
-2924.48,25.7011,19.9999,7.68818e-08,NaN,1.92204e-08,NaN,""
-2916.83,25.696,19.9999,2.65754e-07,NaN,6.64385e-08,NaN,""
-2908.24,25.6902,20,5.17363e-07,NaN,1.29341e-07,NaN,""
-2899.65,25.6843,19.9999,3.47847e-07,NaN,8.69618e-08,NaN,""
-2889.04,25.6771,19.9997,3.47645e-08,NaN,8.69111e-09,NaN,""
-2875.51,25.668,19.9996,3.25933e-07,NaN,8.14832e-08,NaN,""
-2863.98,25.6602,19.9994,-1.9977e-07,NaN,-4.99425e-08,NaN,""
-2850.98,25.6514,19.9994,4.29636e-08,NaN,1.07409e-08,NaN,""
-2837.98,25.6426,19.9995,2.85697e-07,NaN,7.14243e-08,NaN,""
-2827,25.6734,19.9995,-1.84604e-08,NaN,-4.61511e-09,NaN,""
-2816.02,25.7104,19.9996,-3.22618e-07,NaN,-8.06545e-08,NaN,""
-2782.62,25.823,19.9998,-2.51065e-07,NaN,-6.27661e-08,NaN,""
-2765.04,25.7784,19.9998,-3.70364e-07,NaN,-9.2591e-08,NaN,""
-2726.35,25.6741,19.9998,-6.71363e-07,NaN,-1.67841e-07,NaN,""
-2696.02,25.6957,19.9999,-5.65555e-08,NaN,-1.41389e-08,NaN,""
-2690.64,25.6995,19.9999,-5.12217e-09,NaN,-1.28054e-09,NaN,""
-2679.35,25.7075,19.9996,-4.0684e-07,NaN,-1.0171e-07,NaN,""
-2672.07,25.7127,19.9995,-2.7232e-08,NaN,-6.808e-09,NaN,""
-2658.98,25.722,19.9993,-1.14335e-07,NaN,-2.85837e-08,NaN,""
-2641.83,25.7342,19.9994,-2.28461e-07,NaN,-5.71153e-08,NaN,""
-2617.63,25.7515,19.9995,2.19617e-07,NaN,5.49042e-08,NaN,""
-2593.63,25.7686,19.9996,-3.28406e-07,NaN,-8.21015e-08,NaN,""
-2582.87,25.7735,19.9997,-4.3954e-09,NaN,-1.09885e-09,NaN,""
-2572.12,25.7587,19.9998,3.19615e-07,NaN,7.99038e-08,NaN,""
-2546.52,25.7235,19.9999,-2.08448e-07,NaN,-5.21121e-08,NaN,""
-2535.72,25.7086,19.9999,1.22881e-07,NaN,3.07201e-08,NaN,""
-2524.91,25.6937,19.9998,4.5421e-07,NaN,1.13552e-07,NaN,""
-2512.93,25.6772,19.9998,2.17398e-07,NaN,5.43495e-08,NaN,""
-2502.18,25.7017,19.9998,3.82278e-08,NaN,9.55695e-09,NaN,""
-2464.8,25.7868,19.9997,3.16967e-07,NaN,7.92419e-08,NaN,""
-2439.5,25.7579,19.9997,-5.28444e-08,NaN,-1.32111e-08,NaN,""
-2424.24,25.6886,19.9998,-2.75891e-07,NaN,-6.89728e-08,NaN,""
-2414.19,25.6905,19.9999,-4.22656e-07,NaN,-1.05664e-07,NaN,""
-2405.1,25.6921,19.9999,4.4154e-07,NaN,1.10385e-07,NaN,""
-2393.51,25.6942,20,3.32543e-08,NaN,8.31357e-09,NaN,""
-2376.26,25.6973,20,3.78166e-07,NaN,9.45415e-08,NaN,""
-2359.01,25.7005,20,7.23078e-07,NaN,1.8077e-07,NaN,""
-2340.38,25.7038,20,-1.20124e-07,NaN,-3.00311e-08,NaN,""
-2331.11,25.7055,19.9999,2.11812e-07,NaN,5.2953e-08,NaN,""
-2312.32,25.7089,19.9999,-1.80161e-08,NaN,-4.50403e-09,NaN,""
-2304.74,25.7103,19.9999,5.35983e-07,NaN,1.33996e-07,NaN,""
-2291.82,25.7126,19.9998,-5.97505e-08,NaN,-1.49376e-08,NaN,""
-2287.8,25.7134,19.9998,1.83645e-07,NaN,4.59113e-08,NaN,""
-2283.77,25.7141,19.9998,4.27041e-07,NaN,1.0676e-07,NaN,""
-2268.44,25.7169,19.9999,-4.41657e-07,NaN,-1.10414e-07,NaN,""
-2257.49,25.7189,19.9999,1.2747e-07,NaN,3.18676e-08,NaN,""
-2247.07,25.7207,19.9999,1.71054e-08,NaN,4.27634e-09,NaN,""
-2212.01,25.7271,20,NaN,NaN,NaN,NaN,""
-2176.61,25.7335,19.9997,NaN,NaN,NaN,NaN,""
-2147.66,25.7361,19.9999,NaN,NaN,NaN,NaN,""
-2118.72,25.7289,20,NaN,NaN,NaN,NaN,""
-2056.52,25.7134,19.9994,NaN,NaN,NaN,NaN,""
-1979.95,25.6943,19.9999,NaN,NaN,NaN,NaN,""
-1882.44,25.7132,19.9999,NaN,NaN,NaN,NaN,""
-1754.27,25.7538,19.9998,NaN,NaN,NaN,NaN,""
-1583.14,25.6982,19.9998,NaN,NaN,NaN,NaN,""
-1489.83,25.7235,19.9998,NaN,NaN,NaN,NaN,""
-1396.51,25.7487,19.9998,NaN,NaN,NaN,NaN,""
-1284.94,25.7231,19.9999,NaN,NaN,NaN,NaN,""
-1229.54,25.7104,20,NaN,NaN,NaN,NaN,""
-1154.12,25.6931,19.9995,NaN,NaN,NaN,NaN,""
-1134.06,25.6932,19.9999,NaN,NaN,NaN,NaN,""
-1114,25.7053,20.0002,NaN,NaN,NaN,NaN,""
-1061.55,25.7369,19.9994,NaN,NaN,NaN,NaN,""
-1002.54,25.7725,19.9999,NaN,NaN,NaN,NaN,""
-945.001,25.8071,19.9999,NaN,NaN,NaN,NaN,""
-904.626,25.7854,19.9999,NaN,NaN,NaN,NaN,""
-864.252,25.7636,20.0003,NaN,NaN,NaN,NaN,""
-837.763,25.7993,20.0003,NaN,NaN,NaN,NaN,""
-803.452,25.8455,19.9999,NaN,NaN,NaN,NaN,""
-773.025,25.6757,19.9999,NaN,NaN,NaN,NaN,""
-756.751,25.7225,19.9998,NaN,NaN,NaN,NaN,""
-738.5,25.7988,19.9998,NaN,NaN,NaN,NaN,""
-677.297,25.7887,19.9997,NaN,NaN,NaN,NaN,""
-617.862,25.7789,20,NaN,NaN,NaN,NaN,""
-533.05,25.7649,19.9999,NaN,NaN,NaN,NaN,""
-492.752,25.7583,20.0007,NaN,NaN,NaN,NaN,""
-449.777,25.7512,20.0011,NaN,NaN,NaN,NaN,""
-415.757,25.7455,20.0004,NaN,NaN,NaN,NaN,""
-324.007,25.7304,20.0007,NaN,NaN,NaN,NaN,""
-260.648,25.7247,20.0005,NaN,NaN,NaN,NaN,""
-197.289,25.7209,20.0003,NaN,NaN,NaN,NaN,""
-121.452,25.7163,19.9999,NaN,NaN,NaN,NaN,""
-39.5114,25.7113,19.9999,NaN,NaN,NaN,NaN,""
-20.32,25.8211,19.9999,NaN,NaN,NaN,NaN,""
-6.71842,25.5474,19.9999,NaN,NaN,NaN,NaN,""
16.8665,25.6411,19.9999,NaN,NaN,NaN,NaN,""
63.3675,26.0395,19.9999,NaN,NaN,NaN,NaN,""
99.0218,25.7911,19.9999,NaN,NaN,NaN,NaN,""
145.896,25.8814,19.9999,NaN,NaN,NaN,NaN,""
187.43,25.7769,20,NaN,NaN,NaN,NaN,""
217.852,25.8335,20,NaN,NaN,NaN,NaN,""
236.45,25.5984,20,NaN,NaN,NaN,NaN,""
277.528,25.8729,20,NaN,NaN,NaN,NaN,""
301.677,26.0431,20,NaN,NaN,NaN,NaN,""
325.553,25.8331,20,NaN,NaN,NaN,NaN,""
344.18,25.728,20,NaN,NaN,NaN,NaN,""
385.522,25.8272,20.0001,NaN,NaN,NaN,NaN,""
501.227,25.7607,20.0002,NaN,NaN,NaN,NaN,""
530.095,25.7441,19.9997,NaN,NaN,NaN,NaN,""
545.989,25.7469,19.9997,NaN,NaN,NaN,NaN,""
633.647,25.7626,19.9999,NaN,NaN,NaN,NaN,""
651.75,25.7695,19.9997,NaN,NaN,NaN,NaN,""
669.852,25.777,19.9995,NaN,NaN,NaN,NaN,""
724.696,25.7996,19.9999,NaN,NaN,NaN,NaN,""
732.899,25.6276,19.9999,NaN,NaN,NaN,NaN,""
761.31,25.7251,19.9999,NaN,NaN,NaN,NaN,""
789.722,25.8227,19.9998,NaN,NaN,NaN,NaN,""
828.795,25.8395,19.9997,NaN,NaN,NaN,NaN,""
867.868,25.8562,19.9997,NaN,NaN,NaN,NaN,""
933.471,25.7842,19.9997,NaN,NaN,NaN,NaN,""
961.45,25.765,20.0001,NaN,NaN,NaN,NaN,""
989.43,25.7656,20.0004,NaN,NaN,NaN,NaN,""
1059.4,25.767,19.9995,NaN,NaN,NaN,NaN,""
1089.59,25.7757,19.9996,NaN,NaN,NaN,NaN,""
1119.78,25.7843,19.9997,NaN,NaN,NaN,NaN,""
1135.93,25.972,19.9998,NaN,NaN,NaN,NaN,""
1143.65,25.685,19.9998,NaN,NaN,NaN,NaN,""
1159.44,25.778,19.9998,NaN,NaN,NaN,NaN,""
1175.23,25.871,19.9999,NaN,NaN,NaN,NaN,""
1195.15,26.1544,19.9999,NaN,NaN,NaN,NaN,""
1212.08,25.9141,20,NaN,NaN,NaN,NaN,""
1274.43,25.8967,20.0001,NaN,NaN,NaN,NaN,""
1308.56,25.8871,19.9996,NaN,NaN,NaN,NaN,""
1331.72,25.8793,19.9997,NaN,NaN,NaN,NaN,""
1354.87,25.861,19.9997,NaN,NaN,NaN,NaN,""
1387.01,25.8356,20.0005,NaN,NaN,NaN,NaN,""
1449.6,25.7862,19.9999,NaN,NaN,NaN,NaN,""
1509.16,25.7391,19.9999,NaN,NaN,NaN,NaN,""
1534.87,25.8235,19.9998,NaN,NaN,NaN,NaN,""
1560.59,25.9079,19.9994,NaN,NaN,NaN,NaN,""
1584.02,25.6671,19.9991,NaN,NaN,NaN,NaN,""
1602.51,25.8567,19.9994,NaN,NaN,NaN,NaN,""
1621.01,26.0464,19.9996,NaN,NaN,NaN,NaN,""
1640.34,25.9312,19.9999,NaN,NaN,NaN,NaN,""
1653.93,25.9041,20,NaN,NaN,NaN,NaN,""
1679.48,25.9919,20.0002,NaN,NaN,NaN,NaN,""
1724.08,25.8442,20.0004,NaN,NaN,NaN,NaN,""
1749.86,25.8137,20.0001,NaN,NaN,NaN,NaN,""
1782.27,25.8009,19.9996,NaN,NaN,NaN,NaN,""
1859.87,25.7702,19.9998,NaN,NaN,NaN,NaN,""
1905.35,25.8285,19.9999,NaN,NaN,NaN,NaN,""
1937.5,25.7421,19.9999,NaN,NaN,NaN,NaN,""
1950.48,25.6417,19.9999,NaN,NaN,NaN,NaN,""
1967.53,25.8613,20,NaN,NaN,NaN,NaN,""
2068.98,25.8272,20,NaN,NaN,NaN,NaN,"Reaction start. Measuring position. Signal correct"
2069.93,25.8269,20,0.000134798,0.000127717,3.36995e-05,3.19293e-05,""
2501.68,25.8362,19.9998,0.283871,26.4006,0.0709678,6.60015,""
2970.34,25.788,20,0.0960425,113.663,0.0240106,28.4158,""
3823.52,25.8074,20,0.0133877,147.287,0.00334692,36.8218,""
6359.31,25.7578,19.9998,0.00277381,160.095,0.000693452,40.0237,""
9559.16,25.8073,20.0004,0.00180811,167.073,0.000452029,41.7682,""
12215.8,25.9463,20.0005,0.00170581,171.73,0.000426454,42.9326,""
15241.2,26.2286,20.0001,0.00154538,176.641,0.000386346,44.1602,""
17964.4,26.2866,20,0.00144527,180.701,0.000361317,45.1754,""
20780.4,25.9644,20,0.00138463,184.674,0.000346158,46.1685,""
24407.1,25.7509,19.9998,0.00138971,189.655,0.000347428,47.4139,""
27844,25.6363,19.9996,0.00135659,194.34,0.000339147,48.585,""
31663.1,25.7364,19.9999,0.00143745,199.645,0.000359363,49.9112,""
35930.8,25.6247,19.9999,0.00163875,206.166,0.000409688,51.5416,""
39591.9,25.7082,20,0.00192558,212.652,0.000481395,53.163,""
43252.1,25.6141,19.9994,0.002362,220.443,0.0005905,55.1107,""
46449.9,25.667,19.9998,0.00290878,228.826,0.000727194,57.2066,""
49893.6,25.5757,19.9998,0.00368484,240.125,0.000921209,60.0313,""
53697.6,25.4999,20.0002,0.00472654,256.071,0.00118163,64.0178,""
57615.2,25.4507,19.9999,0.00591019,276.889,0.00147755,69.2223,""
60972.5,25.4914,19.9996,0.00692561,298.444,0.0017314,74.6109,""
65014.1,25.5155,20.0002,0.00802428,328.731,0.00200607,82.1828,""
68675.9,25.5013,20.0004,0.00877694,359.555,0.00219423,89.8888,""
72838.8,25.584,19.9997,0.00923137,397.245,0.00230784,99.3113,""
76209.1,26.6076,19.9999,0.00929556,428.501,0.00232389,107.125,""
79760.6,26.6388,19.9996,0.00919399,461.424,0.0022985,115.356,""
84081.2,26.5407,19.9998,0.00885679,500.451,0.0022142,125.113,""
87532.7,26.7943,19.9998,0.00852945,530.469,0.00213236,132.617,""
91913.9,26.5942,19.9998,0.00808413,566.872,0.00202103,141.718,""
95224.9,26.7213,20.0002,0.00772249,593.043,0.00193062,148.261,""
98603.3,26.2139,19.9998,0.00735202,618.509,0.00183801,154.627,""
102160,25.8282,19.9997,0.00695054,643.945,0.00173764,160.986,""
105345,25.489,19.9997,0.00659884,665.512,0.00164971,166.378,""
108833,25.5294,19.9999,0.00622276,687.869,0.00155569,171.967,""
112291,25.5276,20.0001,0.0058602,708.759,0.00146505,177.19,""
115878,25.3801,19.9996,0.0054947,729.118,0.00137367,182.279,""
119399,25.2394,19.9998,0.00515183,747.86,0.00128796,186.965,""
122553,25.3253,19.9997,0.00485532,763.636,0.00121383,190.909,""
126636,25.3907,20.0002,0.00449552,782.72,0.00112388,195.68,""
129935,25.4037,19.9999,0.00422726,797.102,0.00105681,199.276,""
134003,25.2136,19.9999,0.00392778,813.681,0.000981946,203.42,""
137408,25.115,20,0.00370244,826.665,0.00092561,206.666,""
141454,25.0752,19.9997,0.00345863,841.147,0.000864658,210.287,""
144952,25.0645,20.0006,0.00326768,852.905,0.00081692,213.226,""
148320,25.1417,20.0008,0.00310318,863.627,0.000775794,215.907,""
152641,25.0406,19.9998,0.00291497,876.614,0.000728744,219.154,""
156481,25.0541,19.9992,0.0027714,887.527,0.000692851,221.882,""
160595,25.2812,19.9997,0.00264172,898.654,0.000660431,224.664,""
164248,25.1695,20.0006,0.00254267,908.12,0.000635667,227.03,""
167902,25.3264,19.9999,0.00245187,917.243,0.000612967,229.311,""
171425,25.1985,19.9999,0.00237658,925.748,0.000594145,231.437,""
175309,25.2125,20,0.00229747,934.822,0.000574368,233.706,""
179027,25.2314,19.9996,0.00222848,943.232,0.00055712,235.808,""
182551,25.1759,19.9998,0.00216707,950.977,0.000541768,237.744,""
186160,25.1984,19.9997,0.00211033,958.695,0.000527583,239.674,""
190150,25.2055,19.9995,0.00205058,966.994,0.000512645,241.748,""
194231,25.3551,20.0002,0.00199457,975.248,0.000498643,243.812,""
197666,25.3322,19.9998,0.00195217,982.023,0.000488044,245.506,""
200690,26.2121,19.9996,0.00191534,987.868,0.000478836,246.967,""
204005,25.79,20.0001,0.00187844,994.158,0.000469611,248.539,""
206767,25.7969,19.9997,0.00184682,999.302,0.000461704,249.826,""
208831,25.8069,19.9999,0.00182564,1003.09,0.000456409,250.773,""
212138,25.309,19.9997,0.001792,1009.07,0.000447999,252.269,""
216508,25.2976,19.9998,0.00175029,1016.82,0.000437573,254.204,""
220596,25.3347,19.9998,0.00171566,1023.9,0.000428915,255.975,""
224599,25.3234,19.9999,0.00168451,1030.71,0.000421129,257.676,""
228203,25.3371,19.9998,0.00165652,1036.73,0.000414129,259.181,""
232355,25.1996,19.9998,0.00162706,1043.54,0.000406764,260.886,""
236456,25.3429,19.9998,0.00159988,1050.16,0.00039997,262.54,""
241179,25.3864,19.9999,0.00157228,1057.65,0.000393071,264.413,""
244874,26.2137,19.9998,0.00155219,1063.42,0.000388046,265.856,""
248415,26.1834,20.0002,0.0015342,1068.89,0.000383549,267.222,""
252047,26.194,19.9996,0.0015147,1074.42,0.000378675,268.606,""
255821,26.2074,19.9998,0.00149571,1080.11,0.000373928,270.026,""
259377,26.2705,19.9999,0.00147683,1085.39,0.000369208,271.347,""
263749,26.2417,20.0004,0.00145813,1091.81,0.000364532,272.951,""
267305,26.2454,20.0005,0.00144126,1096.96,0.000360314,274.24,""
270721,25.6382,19.9991,0.00142767,1101.86,0.000356917,275.465,""
273117,25.4947,19.9997,0.00141659,1105.27,0.000354149,276.317,""
276464,25.309,20.0001,0.00140342,1109.99,0.000350855,277.497,""
281327,25.3104,19.9998,0.00138689,1116.77,0.000346722,279.193,""
285728,25.4354,19.9999,0.00137332,1122.85,0.000343329,280.712,""
290622,25.4161,19.9999,0.00135834,1129.53,0.000339585,282.382,""
294824,25.3822,19.9998,0.00134806,1135.22,0.000337014,283.804,""
298014,25.4295,19.9999,0.0013393,1139.5,0.000334825,284.875,""
301979,25.3918,19.9997,0.00132875,1144.79,0.000332187,286.197,""
305902,25.4729,19.9998,0.0013189,1149.98,0.000329724,287.495,""
310496,25.4209,19.9995,0.00130678,1156.01,0.000326694,289.004,""
314521,25.3488,19.9999,0.00129725,1161.25,0.000324312,290.314,""
317921,25.4583,19.9999,0.00128826,1165.65,0.000322066,291.413,""
321888,25.4598,19.9999,0.00127905,1170.74,0.000319761,292.686,""
326192,25.447,19.9999,0.00126883,1176.22,0.000317209,294.056,""
330767,25.5038,19.9999,0.00125849,1182,0.000314622,295.501,""
334674,25.5541,20,0.00124844,1186.9,0.000312109,296.725,""
339050,25.5372,19.9995,0.00123751,1192.34,0.000309377,298.085,""
342965,25.6134,19.9998,0.00122819,1197.17,0.000307047,299.292,""
346876,25.7423,19.9997,0.00121816,1201.95,0.00030454,300.488,""
350873,25.6009,20.0001,0.00120787,1206.8,0.000301968,301.7,""
355378,25.7541,20,0.00119499,1212.21,0.000298747,303.053,""
358609,25.6189,19.9998,0.00118687,1216.06,0.000296719,304.015,""
362257,25.8057,20,0.001177,1220.37,0.000294251,305.093,""
365793,25.5844,19.9998,0.00116737,1224.52,0.000291841,306.129,""
369855,25.6971,19.9996,0.00115672,1229.24,0.000289181,307.309,""
374009,25.677,19.9998,0.00114515,1234.02,0.000286288,308.504,""
377942,25.5317,20,0.00113436,1238.5,0.00028359,309.625,""
382727,25.6234,20,0.00112144,1243.9,0.00028036,310.975,""
387456,25.7156,19.9998,0.00110877,1249.17,0.000277194,312.294,""
391678,25.72,20.0001,0.00109616,1253.83,0.00027404,313.457,""
396815,25.661,20.0001,0.00108078,1259.42,0.000270194,314.855,""
401675,25.6858,20.0001,0.00106638,1264.63,0.000266595,316.159,""
406360,25.6362,19.9998,0.00105222,1269.6,0.000263054,317.399,""
410154,25.675,20.0003,0.001041,1273.57,0.000260249,318.392,""
414657,25.6129,20.0004,0.00102767,1278.22,0.000256917,319.556,""
419095,25.5651,20.0003,0.00101403,1282.75,0.000253507,320.689,""
423876,25.6319,19.9997,0.000999768,1287.57,0.000249942,321.892,""
428222,25.5728,20.0001,0.000985567,1291.88,0.000246392,322.97,""
432065,25.6331,20,0.000973909,1295.65,0.000243477,323.911,""
435936,25.5946,20.0001,0.000961734,1299.39,0.000240433,324.848,""
439737,25.5843,19.9999,0.00094906,1303.02,0.000237265,325.756,""
443179,25.6041,19.9999,0.000938395,1306.27,0.000234599,326.568,""
447316,25.5966,19.9999,0.000925895,1310.13,0.000231474,327.532,""
451068,25.7111,19.9997,0.000914638,1313.58,0.00022866,328.395,""
454486,25.7106,19.9996,0.000904855,1316.69,0.000226214,329.172,""
457811,25.7209,19.9996,0.000895025,1319.68,0.000223756,329.921,""
461744,25.7396,19.9997,0.000884991,1323.19,0.000221248,330.797,""
466281,25.6179,19.9999,0.000873553,1327.17,0.000218388,331.794,""
470171,25.574,20.0001,0.000863719,1330.55,0.00021593,332.638,""
474616,25.649,20,0.000851924,1334.36,0.000212981,333.59,""
479599,25.7227,20.0001,0.000838983,1338.58,0.000209746,334.644,""
484211,25.6375,19.9999,0.000827357,1342.42,0.000206839,335.605,""
488793,25.7069,20.0001,0.000815319,1346.18,0.00020383,336.546,""
492253,25.5528,19.9994,0.000806213,1348.99,0.000201553,337.247,""
498502,25.6086,19.9998,0.000790222,1353.98,0.000197556,338.495,""
502759,26.4223,20.0011,0.000780504,1357.33,0.000195126,339.331,""
506767,26.1808,19.9998,0.000770674,1360.44,0.000192669,340.109,""
511094,26.3883,19.9998,0.000759499,1363.75,0.000189875,340.937,""
515000,26.4674,19.9998,0.000748919,1366.69,0.00018723,341.673,""
518754,26.4545,19.9996,0.000738933,1369.49,0.000184733,342.372,""
522444,26.366,20.0001,0.000729934,1372.2,0.000182484,343.05,""
526916,26.4786,20.0004,0.000718551,1375.44,0.000179638,343.859,""
531255,26.5405,19.9997,0.000707978,1378.53,0.000176995,344.633,""
535296,26.5764,19.9999,0.000698297,1381.37,0.000174574,345.343,""
539371,25.3957,19.9996,0.00068839,1384.2,0.000172098,346.049,""
542955,25.3316,19.9992,0.000679944,1386.65,0.000169986,346.662,""
547022,25.4592,19.9998,0.000671639,1389.4,0.00016791,347.35,""
550907,25.4629,19.9997,0.000664369,1391.99,0.000166092,347.999,""
554754,25.0929,19.9998,0.000656613,1394.53,0.000164153,348.634,""
559628,25.0223,19.9998,0.000647425,1397.71,0.000161856,349.428,""
565690,24.921,19.9999,0.000636031,1401.6,0.000159008,350.401,""
571688,24.9473,19.9999,0.00062513,1405.38,0.000156283,351.346,""
577383,24.9424,20.0008,0.000613722,1408.91,0.00015343,352.228,""
582490,24.9724,20.0001,0.000602848,1412.02,0.000150712,353.004,""
587081,25.6721,19.9998,0.000595937,1414.77,0.000148984,353.693,""
590988,25.8381,19.9999,0.000587832,1417.08,0.000146958,354.271,""
595917,25.9901,20.0001,0.000577635,1419.96,0.000144409,354.989,""
599942,25.9432,20.0003,0.000569454,1422.27,0.000142363,355.567,""
603041,NaN,NaN,0.000563522,1424.02,0.00014088,356.006,""
603041,NaN,NaN,NaN,NaN,NaN,NaN,"Ampoule removed"